Data from 12-12-AQDScycling_Absorbance__644__00644.txt Node

Date: Tue Dec 12 13:37:44 EST 2023
User: kyuminlee
Spectrometer: FLMS00943
Trigger mode: 0
Integration Time (sec): 1.000000E-1
Scans to average: 1
Electric dark correction enabled: true
Nonlinearity correction enabled: false
Boxcar width: 0
XAxis mode: Wavelengths
Number of Pixels in Spectrum: 2048
>>>>>Begin Spectral Data<<<<<
179.651	-0
180.037	-0
180.424	-0
180.81	0.13
181.197	-0.01
181.583	-0
181.97	-0.33
182.356	-0
182.743	-0.81
183.129	0.47
183.515	0.19
183.901	-2.28
184.288	0.94
184.674	-0
185.06	-0.28
185.446	-0
185.832	-0
186.218	0.24
186.604	-0
186.99	-0
187.376	-0
187.762	0.3
188.148	0.18
188.534	0.3
188.92	-0.03
189.305	-0.09
189.691	0.18
190.077	0.22
190.463	0.21
190.848	0.08
191.234	-0.07
191.619	0.06
192.005	0.21
192.391	0.17
192.776	0.11
193.161	0.06
193.547	0.26
193.932	0.09
194.318	0.1
194.703	0.15
195.088	0.26
195.473	0.19
195.859	0.18
196.244	0.17
196.629	0.17
197.014	0.18
197.399	0.24
197.784	0.27
198.169	0.14
198.554	0.17
198.939	0.13
199.324	0.25
199.709	0.08
200.094	0.12
200.478	0.11
200.863	0.15
201.248	0.07
201.633	0.25
202.017	0.25
202.402	0.23
202.787	0.18
203.171	0.15
203.556	0.26
203.94	0.17
204.325	0.3
204.709	0.19
205.093	0.13
205.478	0.25
205.862	0.1
206.246	0.17
206.631	0.04
207.015	0.08
207.399	0.22
207.783	0.22
208.167	0.09
208.551	0.2
208.935	0.23
209.319	0.1
209.703	0.33
210.087	0.24
210.471	0.21
210.855	0.23
211.239	0.18
211.623	0.23
212.007	0.38
212.39	0.17
212.774	0.22
213.158	0.14
213.541	0.26
213.925	0.28
214.309	0.36
214.692	0.16
215.076	0.22
215.459	0.14
215.842	0.08
216.226	0.36
216.609	0.27
216.993	0.3
217.376	0.46
217.759	0.23
218.142	0.25
218.525	0.59
218.909	0.51
219.292	0.27
219.675	0.54
220.058	0.51
220.441	0.49
220.824	0.58
221.207	0.63
221.59	0.57
221.973	0.52
222.355	0.72
222.738	0.59
223.121	0.54
223.504	0.6
223.886	0.77
224.269	0.71
224.652	0.6
225.034	0.65
225.417	0.61
225.799	0.74
226.182	0.74
226.564	0.74
226.947	0.67
227.329	0.93
227.711	0.97
228.094	1.08
228.476	0.87
228.858	0.78
229.24	0.82
229.623	0.87
230.005	0.83
230.387	0.83
230.769	0.78
231.151	1.03
231.533	0.87
231.915	1
232.297	0.95
232.679	0.96
233.061	1.01
233.442	1.06
233.824	1.15
234.206	1.15
234.588	1.06
234.969	1.05
235.351	0.93
235.733	1.17
236.114	1.04
236.496	1.06
236.877	1.2
237.259	1.3
237.64	1.02
238.022	1.18
238.403	1.07
238.784	1.06
239.165	1.01
239.547	1.16
239.928	1.05
240.309	1.06
240.69	1.04
241.071	1.15
241.452	1.12
241.834	1.05
242.215	1.07
242.595	1.03
242.976	1.26
243.357	1.07
243.738	1.09
244.119	1.21
244.5	1.21
244.881	1.2
245.261	1.19
245.642	1.14
246.023	1.17
246.403	1.21
246.784	1.33
247.164	1.39
247.545	1.23
247.925	1.35
248.306	1.15
248.686	1.71
249.067	1.21
249.447	1.43
249.827	1.51
250.207	1.43
250.588	1.27
250.968	1.39
251.348	1.36
251.728	1.57
252.108	1.38
252.488	1.31
252.868	1.32
253.248	1.35
253.628	1.37
254.008	1.38
254.388	1.22
254.768	1.37
255.147	1.31
255.527	1.51
255.907	1.33
256.287	1.4
256.666	1.39
257.046	1.69
257.425	1.44
257.805	1.38
258.184	1.35
258.564	1.39
258.943	1.44
259.323	1.43
259.702	1.54
260.081	1.43
260.461	1.57
260.84	1.43
261.219	1.65
261.598	1.57
261.977	1.43
262.356	1.63
262.736	1.42
263.115	1.48
263.494	1.46
263.873	1.47
264.251	1.49
264.63	1.46
265.009	1.47
265.388	1.44
265.767	1.37
266.145	1.39
266.524	1.44
266.903	1.32
267.281	1.35
267.66	1.5
268.039	1.5
268.417	1.45
268.796	1.43
269.174	1.37
269.552	1.3
269.931	1.7
270.309	1.69
270.687	1.65
271.066	1.98
271.444	1.46
271.822	1.62
272.2	1.31
272.578	1.47
272.956	1.43
273.334	1.35
273.712	1.44
274.09	1.58
274.468	1.48
274.846	1.29
275.224	1.34
275.602	1.44
275.98	1.49
276.357	1.4
276.735	1.62
277.113	1.46
277.49	1.34
277.868	1.41
278.246	1.44
278.623	1.29
279.001	1.28
279.378	1.43
279.756	1.58
280.133	1.72
280.51	1.36
280.888	1.45
281.265	1.35
281.642	1.33
282.019	1.65
282.396	1.61
282.773	1.48
283.151	1.47
283.528	1.43
283.905	1.42
284.282	1.45
284.659	1.61
285.035	1.52
285.412	1.36
285.789	1.44
286.166	1.49
286.543	1.47
286.919	1.49
287.296	1.38
287.673	1.67
288.049	1.51
288.426	1.58
288.802	1.51
289.179	1.47
289.555	1.59
289.932	1.46
290.308	1.34
290.684	1.39
291.061	1.33
291.437	1.6
291.813	1.32
292.189	1.42
292.565	1.34
292.942	1.29
293.318	1.35
293.694	1.47
294.07	1.37
294.446	1.42
294.822	1.58
295.197	1.53
295.573	1.45
295.949	1.41
296.325	1.56
296.701	1.59
297.076	1.55
297.452	1.69
297.828	1.4
298.203	1.49
298.579	1.49
298.954	1.48
299.33	1.46
299.705	1.4
300.081	1.44
300.456	1.42
300.831	1.33
301.206	1.36
301.582	1.42
301.957	1.39
302.332	1.51
302.707	1.37
303.082	1.35
303.457	1.37
303.832	1.39
304.207	1.27
304.582	1.33
304.957	1.36
305.332	1.41
305.707	1.33
306.082	1.45
306.456	1.37
306.831	1.33
307.206	1.34
307.58	1.38
307.955	1.33
308.33	1.31
308.704	1.27
309.079	1.23
309.453	1.36
309.828	1.23
310.202	1.25
310.576	1.3
310.951	1.26
311.325	1.26
311.699	1.28
312.073	1.17
312.447	1.18
312.821	1.25
313.196	1.26
313.57	1.18
313.944	1.17
314.317	1.21
314.691	1.18
315.065	1.28
315.439	1.35
315.813	1.25
316.187	1.21
316.56	1.29
316.934	1.23
317.308	1.22
317.681	1.25
318.055	1.24
318.428	1.3
318.802	1.28
319.175	1.24
319.549	1.26
319.922	1.17
320.295	1.23
320.669	1.38
321.042	1.25
321.415	1.37
321.788	1.27
322.162	1.29
322.535	1.31
322.908	1.37
323.281	1.28
323.654	1.33
324.027	1.27
324.4	1.34
324.773	1.3
325.145	1.3
325.518	1.3
325.891	1.22
326.264	1.39
326.636	1.26
327.009	1.22
327.382	1.28
327.754	1.35
328.127	1.25
328.499	1.33
328.872	1.31
329.244	1.33
329.616	1.28
329.989	1.34
330.361	1.31
330.733	1.29
331.106	1.3
331.478	1.31
331.85	1.29
332.222	1.33
332.594	1.29
332.966	1.31
333.338	1.45
333.71	1.3
334.082	1.44
334.454	1.3
334.826	1.31
335.197	1.32
335.569	1.31
335.941	1.38
336.312	1.31
336.684	1.3
337.056	1.29
337.427	1.31
337.799	1.42
338.17	1.39
338.542	1.4
338.913	1.42
339.284	1.39
339.656	1.39
340.027	1.42
340.398	1.5
340.769	1.42
341.141	1.45
341.512	1.32
341.883	1.43
342.254	1.31
342.625	1.5
342.996	1.36
343.367	1.31
343.738	1.36
344.108	1.3
344.479	1.4
344.85	1.35
345.221	1.45
345.591	1.22
345.962	1.32
346.333	1.35
346.703	1.2
347.074	1.35
347.444	1.24
347.815	1.32
348.185	1.31
348.556	1.32
348.926	1.21
349.296	1.33
349.666	1.31
350.037	1.22
350.407	1.22
350.777	1.26
351.147	1.26
351.517	1.3
351.887	1.33
352.257	1.45
352.627	1.21
352.997	1.31
353.367	1.27
353.737	1.35
354.106	1.37
354.476	1.28
354.846	1.38
355.216	1.38
355.585	1.41
355.955	1.47
356.324	1.35
356.694	1.45
357.063	1.3
357.433	1.26
357.802	1.41
358.171	1.49
358.541	1.38
358.91	1.44
359.279	1.43
359.648	1.41
360.017	1.49
360.387	1.47
360.756	1.29
361.125	1.54
361.494	1.58
361.863	1.47
362.231	1.43
362.6	1.41
362.969	1.51
363.338	1.35
363.707	1.5
364.075	1.45
364.444	1.3
364.813	1.39
365.181	1.47
365.55	1.46
365.918	1.62
366.287	1.58
366.655	1.5
367.024	1.43
367.392	1.51
367.76	1.39
368.128	1.4
368.497	1.53
368.865	1.39
369.233	1.52
369.601	1.55
369.969	1.45
370.337	1.5
370.705	1.62
371.073	1.49
371.441	1.47
371.809	1.39
372.177	1.47
372.544	1.48
372.912	1.46
373.28	1.51
373.647	1.55
374.015	1.59
374.383	1.59
374.75	1.77
375.118	1.49
375.485	1.53
375.853	1.57
376.22	1.59
376.587	1.57
376.955	1.49
377.322	1.48
377.689	1.6
378.056	1.45
378.423	1.44
378.79	1.6
379.157	1.6
379.524	1.51
379.891	1.45
380.258	1.62
380.625	1.64
380.992	1.54
381.359	1.67
381.726	1.63
382.092	1.5
382.459	1.56
382.826	1.56
383.192	1.53
383.559	1.51
383.925	1.62
384.292	1.5
384.658	1.76
385.025	1.64
385.391	1.66
385.757	1.8
386.123	1.71
386.49	1.58
386.856	1.62
387.222	1.62
387.588	1.51
387.954	1.71
388.32	1.67
388.686	1.52
389.052	1.49
389.418	1.61
389.784	1.57
390.15	1.72
390.515	1.39
390.881	1.78
391.247	1.48
391.613	1.67
391.978	1.45
392.344	1.62
392.709	1.65
393.075	1.55
393.44	1.54
393.806	1.59
394.171	1.49
394.536	1.39
394.902	1.65
395.267	1.51
395.632	1.49
395.997	1.44
396.362	1.48
396.727	1.67
397.092	1.61
397.457	1.46
397.822	1.46
398.187	1.58
398.552	1.56
398.917	1.64
399.282	1.45
399.646	1.51
400.011	1.81
400.376	1.52
400.74	1.51
401.105	1.54
401.47	1.52
401.834	1.6
402.199	1.49
402.563	1.56
402.927	1.56
403.292	1.61
403.656	1.44
404.02	1.59
404.384	1.63
404.749	1.53
405.113	1.57
405.477	1.64
405.841	1.7
406.205	1.47
406.569	1.49
406.933	1.44
407.296	1.67
407.66	1.55
408.024	1.48
408.388	1.52
408.752	1.62
409.115	1.56
409.479	1.58
409.842	1.58
410.206	1.38
410.569	1.55
410.933	1.48
411.296	1.47
411.66	1.51
412.023	1.39
412.386	1.4
412.749	1.4
413.113	1.52
413.476	1.45
413.839	1.49
414.202	1.35
414.565	1.37
414.928	1.38
415.291	1.37
415.654	1.41
416.017	1.45
416.38	1.35
416.742	1.46
417.105	1.37
417.468	1.44
417.83	1.41
418.193	1.47
418.556	1.41
418.918	1.46
419.281	1.56
419.643	1.45
420.005	1.43
420.368	1.37
420.73	1.39
421.092	1.42
421.455	1.48
421.817	1.31
422.179	1.4
422.541	1.46
422.903	1.47
423.265	1.45
423.627	1.44
423.989	1.39
424.351	1.41
424.713	1.33
425.075	1.34
425.436	1.39
425.798	1.32
426.16	1.5
426.521	1.4
426.883	1.37
427.245	1.41
427.606	1.4
427.967	1.31
428.329	1.35
428.69	1.41
429.052	1.3
429.413	1.31
429.774	1.4
430.135	1.38
430.497	1.45
430.858	1.3
431.219	1.38
431.58	1.3
431.941	1.3
432.302	1.31
432.663	1.34
433.024	1.39
433.384	1.33
433.745	1.27
434.106	1.33
434.467	1.33
434.827	1.29
435.188	1.33
435.548	1.37
435.909	1.27
436.269	1.34
436.63	1.26
436.99	1.33
437.351	1.27
437.711	1.26
438.071	1.27
438.431	1.26
438.792	1.24
439.152	1.28
439.512	1.24
439.872	1.21
440.232	1.28
440.592	1.23
440.952	1.27
441.312	1.19
441.671	1.14
442.031	1.24
442.391	1.21
442.751	1.24
443.11	1.21
443.47	1.17
443.83	1.15
444.189	1.16
444.549	1.19
444.908	1.14
445.267	1.15
445.627	1.15
445.986	1.11
446.345	1.11
446.705	1.14
447.064	1.11
447.423	1.13
447.782	1.1
448.141	1.05
448.5	1.06
448.859	1.08
449.218	1.05
449.577	1.11
449.936	1.07
450.295	1.07
450.653	1.06
451.012	1.06
451.371	1.05
451.729	1.03
452.088	1.04
452.447	1.03
452.805	1.02
453.163	1.02
453.522	1
453.88	0.99
454.239	0.98
454.597	0.98
454.955	0.96
455.313	0.97
455.671	0.95
456.029	0.95
456.388	0.92
456.746	0.93
457.104	0.9
457.461	0.89
457.819	0.89
458.177	0.88
458.535	0.86
458.893	0.86
459.25	0.86
459.608	0.84
459.966	0.83
460.323	0.82
460.681	0.81
461.038	0.78
461.396	0.8
461.753	0.77
462.111	0.77
462.468	0.75
462.825	0.74
463.182	0.73
463.54	0.72
463.897	0.73
464.254	0.72
464.611	0.7
464.968	0.7
465.325	0.7
465.682	0.68
466.039	0.67
466.395	0.65
466.752	0.64
467.109	0.65
467.466	0.64
467.822	0.63
468.179	0.61
468.535	0.61
468.892	0.6
469.248	0.57
469.605	0.57
469.961	0.58
470.318	0.57
470.674	0.58
471.03	0.55
471.386	0.53
471.743	0.54
472.099	0.53
472.455	0.53
472.811	0.51
473.167	0.52
473.523	0.5
473.879	0.5
474.235	0.49
474.59	0.48
474.946	0.47
475.302	0.47
475.657	0.46
476.013	0.45
476.369	0.44
476.724	0.43
477.08	0.43
477.435	0.42
477.791	0.43
478.146	0.41
478.501	0.41
478.857	0.4
479.212	0.4
479.567	0.39
479.922	0.38
480.277	0.37
480.632	0.37
480.987	0.37
481.342	0.36
481.697	0.35
482.052	0.36
482.407	0.35
482.762	0.33
483.116	0.33
483.471	0.33
483.826	0.32
484.18	0.32
484.535	0.31
484.89	0.3
485.244	0.31
485.598	0.3
485.953	0.3
486.307	0.29
486.661	0.29
487.016	0.29
487.37	0.29
487.724	0.28
488.078	0.28
488.432	0.28
488.786	0.27
489.14	0.27
489.494	0.26
489.848	0.26
490.202	0.25
490.556	0.25
490.91	0.25
491.263	0.25
491.617	0.25
491.971	0.24
492.324	0.24
492.678	0.24
493.031	0.24
493.385	0.23
493.738	0.23
494.091	0.23
494.445	0.23
494.798	0.22
495.151	0.22
495.504	0.22
495.857	0.22
496.21	0.22
496.564	0.21
496.916	0.21
497.269	0.21
497.622	0.21
497.975	0.2
498.328	0.21
498.681	0.2
499.033	0.2
499.386	0.19
499.739	0.19
500.091	0.2
500.444	0.19
500.796	0.19
501.149	0.18
501.501	0.19
501.854	0.19
502.206	0.19
502.558	0.19
502.91	0.19
503.263	0.18
503.615	0.18
503.967	0.18
504.319	0.19
504.671	0.18
505.023	0.18
505.375	0.18
505.726	0.18
506.078	0.18
506.43	0.17
506.782	0.17
507.133	0.18
507.485	0.19
507.837	0.18
508.188	0.18
508.54	0.18
508.891	0.18
509.243	0.17
509.594	0.18
509.945	0.17
510.296	0.18
510.648	0.17
510.999	0.17
511.35	0.17
511.701	0.17
512.052	0.18
512.403	0.17
512.754	0.17
513.105	0.17
513.456	0.16
513.807	0.16
514.157	0.17
514.508	0.17
514.859	0.16
515.209	0.16
515.56	0.17
515.91	0.16
516.261	0.17
516.611	0.17
516.962	0.17
517.312	0.17
517.662	0.17
518.013	0.17
518.363	0.18
518.713	0.17
519.063	0.17
519.413	0.17
519.763	0.17
520.113	0.17
520.463	0.17
520.813	0.17
521.163	0.17
521.512	0.17
521.862	0.17
522.212	0.17
522.562	0.17
522.911	0.17
523.261	0.17
523.61	0.17
523.96	0.17
524.309	0.18
524.658	0.17
525.008	0.17
525.357	0.16
525.706	0.17
526.056	0.17
526.405	0.18
526.754	0.16
527.103	0.16
527.452	0.16
527.801	0.17
528.15	0.18
528.499	0.17
528.847	0.17
529.196	0.18
529.545	0.17
529.893	0.17
530.242	0.18
530.591	0.17
530.939	0.18
531.288	0.18
531.636	0.18
531.985	0.17
532.333	0.18
532.681	0.17
533.029	0.17
533.378	0.17
533.726	0.17
534.074	0.18
534.422	0.17
534.77	0.18
535.118	0.17
535.466	0.18
535.814	0.17
536.162	0.18
536.509	0.18
536.857	0.17
537.205	0.18
537.552	0.17
537.9	0.17
538.248	0.18
538.595	0.17
538.943	0.18
539.29	0.17
539.637	0.18
539.985	0.18
540.332	0.17
540.679	0.17
541.026	0.18
541.373	0.19
541.721	0.17
542.068	0.17
542.415	0.18
542.762	0.18
543.108	0.16
543.455	0.16
543.802	0.17
544.149	0.17
544.496	0.17
544.842	0.17
545.189	0.16
545.535	0.17
545.882	0.17
546.228	0.17
546.575	0.16
546.921	0.16
547.267	0.16
547.614	0.17
547.96	0.16
548.306	0.16
548.652	0.16
548.998	0.17
549.344	0.17
549.69	0.18
550.036	0.17
550.382	0.17
550.728	0.17
551.074	0.17
551.42	0.17
551.765	0.17
552.111	0.18
552.457	0.18
552.802	0.17
553.148	0.17
553.493	0.17
553.839	0.17
554.184	0.18
554.529	0.16
554.875	0.18
555.22	0.18
555.565	0.17
555.91	0.17
556.255	0.18
556.6	0.18
556.945	0.17
557.29	0.18
557.635	0.18
557.98	0.18
558.325	0.18
558.67	0.18
559.014	0.17
559.359	0.17
559.704	0.17
560.048	0.17
560.393	0.18
560.737	0.16
561.082	0.17
561.426	0.17
561.77	0.17
562.115	0.17
562.459	0.18
562.803	0.18
563.147	0.17
563.491	0.18
563.835	0.18
564.179	0.18
564.523	0.17
564.867	0.17
565.211	0.17
565.555	0.18
565.899	0.19
566.242	0.18
566.586	0.17
566.93	0.17
567.273	0.18
567.617	0.18
567.96	0.18
568.304	0.17
568.647	0.17
568.99	0.18
569.334	0.18
569.677	0.17
570.02	0.18
570.363	0.18
570.706	0.18
571.049	0.18
571.392	0.18
571.735	0.18
572.078	0.18
572.421	0.19
572.764	0.18
573.106	0.18
573.449	0.18
573.792	0.18
574.134	0.18
574.477	0.18
574.819	0.18
575.162	0.17
575.504	0.17
575.847	0.18
576.189	0.17
576.531	0.18
576.873	0.18
577.215	0.17
577.558	0.18
577.9	0.18
578.242	0.18
578.584	0.18
578.926	0.18
579.267	0.18
579.609	0.18
579.951	0.18
580.293	0.17
580.634	0.19
580.976	0.18
581.318	0.17
581.659	0.17
582.001	0.18
582.342	0.18
582.683	0.18
583.025	0.17
583.366	0.17
583.707	0.17
584.049	0.17
584.39	0.17
584.731	0.17
585.072	0.17
585.413	0.17
585.754	0.17
586.095	0.17
586.435	0.17
586.776	0.18
587.117	0.17
587.458	0.17
587.798	0.18
588.139	0.17
588.48	0.17
588.82	0.17
589.161	0.17
589.501	0.16
589.841	0.17
590.182	0.17
590.522	0.17
590.862	0.17
591.202	0.17
591.542	0.17
591.882	0.17
592.222	0.17
592.562	0.17
592.902	0.17
593.242	0.18
593.582	0.18
593.922	0.17
594.261	0.16
594.601	0.17
594.941	0.17
595.28	0.17
595.62	0.17
595.959	0.17
596.299	0.17
596.638	0.17
596.977	0.17
597.317	0.17
597.656	0.17
597.995	0.17
598.334	0.18
598.673	0.17
599.012	0.17
599.351	0.18
599.69	0.18
600.029	0.18
600.368	0.18
600.707	0.18
601.046	0.17
601.384	0.18
601.723	0.18
602.061	0.18
602.4	0.18
602.738	0.18
603.077	0.18
603.415	0.17
603.754	0.18
604.092	0.18
604.43	0.17
604.768	0.17
605.107	0.18
605.445	0.17
605.783	0.17
606.121	0.17
606.459	0.17
606.796	0.17
607.134	0.17
607.472	0.17
607.81	0.17
608.148	0.16
608.485	0.17
608.823	0.16
609.16	0.17
609.498	0.17
609.835	0.16
610.173	0.17
610.51	0.17
610.847	0.17
611.185	0.17
611.522	0.17
611.859	0.17
612.196	0.16
612.533	0.18
612.87	0.18
613.207	0.18
613.544	0.17
613.881	0.18
614.217	0.17
614.554	0.17
614.891	0.18
615.228	0.18
615.564	0.18
615.901	0.17
616.237	0.18
616.574	0.17
616.91	0.18
617.246	0.17
617.583	0.17
617.919	0.18
618.255	0.18
618.591	0.17
618.927	0.17
619.263	0.18
619.599	0.17
619.935	0.17
620.271	0.18
620.607	0.17
620.943	0.17
621.279	0.17
621.614	0.18
621.95	0.18
622.286	0.17
622.621	0.17
622.957	0.17
623.292	0.17
623.627	0.17
623.963	0.16
624.298	0.18
624.633	0.17
624.968	0.17
625.304	0.16
625.639	0.16
625.974	0.16
626.309	0.16
626.644	0.16
626.979	0.17
627.313	0.17
627.648	0.17
627.983	0.17
628.318	0.15
628.652	0.15
628.987	0.16
629.321	0.16
629.656	0.16
629.99	0.15
630.325	0.16
630.659	0.16
630.993	0.15
631.327	0.15
631.662	0.14
631.996	0.15
632.33	0.15
632.664	0.15
632.998	0.15
633.332	0.14
633.666	0.15
633.999	0.15
634.333	0.15
634.667	0.14
635.001	0.15
635.334	0.15
635.668	0.14
636.001	0.14
636.335	0.15
636.668	0.15
637.001	0.14
637.335	0.14
637.668	0.15
638.001	0.15
638.334	0.14
638.668	0.15
639.001	0.14
639.334	0.14
639.667	0.14
639.999	0.15
640.332	0.15
640.665	0.14
640.998	0.15
641.331	0.15
641.663	0.15
641.996	0.15
642.328	0.15
642.661	0.15
642.993	0.14
643.326	0.15
643.658	0.14
643.99	0.15
644.323	0.14
644.655	0.14
644.987	0.14
645.319	0.15
645.651	0.15
645.983	0.14
646.315	0.14
646.647	0.15
646.979	0.15
647.31	0.14
647.642	0.14
647.974	0.14
648.305	0.14
648.637	0.14
648.968	0.14
649.3	0.15
649.631	0.14
649.963	0.14
650.294	0.14
650.625	0.15
650.957	0.15
651.288	0.15
651.619	0.15
651.95	0.15
652.281	0.15
652.612	0.15
652.943	0.14
653.274	0.15
653.604	0.14
653.935	0.14
654.266	0.15
654.596	0.14
654.927	0.14
655.258	0.14
655.588	0.15
655.918	0.15
656.249	0.13
656.579	0.14
656.909	0.14
657.24	0.13
657.57	0.14
657.9	0.14
658.23	0.14
658.56	0.14
658.89	0.14
659.22	0.14
659.55	0.14
659.88	0.14
660.209	0.14
660.539	0.14
660.869	0.14
661.198	0.14
661.528	0.14
661.857	0.14
662.187	0.13
662.516	0.13
662.846	0.13
663.175	0.14
663.504	0.13
663.833	0.13
664.163	0.13
664.492	0.13
664.821	0.13
665.15	0.13
665.479	0.13
665.807	0.13
666.136	0.13
666.465	0.13
666.794	0.13
667.122	0.14
667.451	0.14
667.78	0.14
668.108	0.13
668.437	0.13
668.765	0.14
669.093	0.14
669.422	0.14
669.75	0.14
670.078	0.14
670.406	0.13
670.734	0.14
671.062	0.14
671.39	0.12
671.718	0.13
672.046	0.13
672.374	0.13
672.702	0.13
673.029	0.12
673.357	0.13
673.685	0.14
674.012	0.13
674.34	0.13
674.667	0.13
674.995	0.13
675.322	0.13
675.649	0.12
675.977	0.13
676.304	0.14
676.631	0.13
676.958	0.12
677.285	0.12
677.612	0.12
677.939	0.12
678.266	0.13
678.593	0.12
678.92	0.12
679.246	0.12
679.573	0.12
679.9	0.13
680.226	0.12
680.553	0.12
680.879	0.12
681.206	0.12
681.532	0.13
681.858	0.12
682.184	0.12
682.511	0.12
682.837	0.12
683.163	0.13
683.489	0.12
683.815	0.13
684.141	0.12
684.467	0.13
684.793	0.12
685.118	0.12
685.444	0.12
685.77	0.12
686.095	0.12
686.421	0.12
686.746	0.13
687.072	0.12
687.397	0.11
687.723	0.12
688.048	0.12
688.373	0.12
688.698	0.12
689.023	0.12
689.349	0.11
689.674	0.12
689.999	0.12
690.323	0.11
690.648	0.11
690.973	0.11
691.298	0.11
691.623	0.11
691.947	0.11
692.272	0.11
692.596	0.12
692.921	0.12
693.245	0.12
693.57	0.12
693.894	0.12
694.218	0.12
694.543	0.11
694.867	0.12
695.191	0.11
695.515	0.12
695.839	0.11
696.163	0.12
696.487	0.11
696.811	0.12
697.135	0.11
697.458	0.11
697.782	0.11
698.106	0.12
698.429	0.12
698.753	0.11
699.076	0.11
699.4	0.11
699.723	0.11
700.046	0.1
700.37	0.11
700.693	0.11
701.016	0.11
701.339	0.11
701.662	0.11
701.985	0.11
702.308	0.11
702.631	0.11
702.954	0.11
703.277	0.11
703.599	0.11
703.922	0.1
704.245	0.11
704.567	0.11
704.89	0.11
705.212	0.11
705.535	0.09
705.857	0.1
706.179	0.1
706.502	0.09
706.824	0.1
707.146	0.1
707.468	0.1
707.79	0.11
708.112	0.1
708.434	0.1
708.756	0.1
709.078	0.11
709.399	0.09
709.721	0.1
710.043	0.1
710.364	0.1
710.686	0.1
711.007	0.1
711.329	0.11
711.65	0.11
711.972	0.1
712.293	0.11
712.614	0.11
712.935	0.11
713.256	0.11
713.577	0.11
713.898	0.11
714.219	0.1
714.54	0.1
714.861	0.09
715.182	0.1
715.503	0.09
715.823	0.1
716.144	0.09
716.464	0.08
716.785	0.09
717.105	0.09
717.426	0.09
717.746	0.1
718.066	0.08
718.387	0.09
718.707	0.08
719.027	0.09
719.347	0.08
719.667	0.09
719.987	0.08
720.307	0.09
720.627	0.09
720.947	0.08
721.266	0.09
721.586	0.09
721.906	0.09
722.225	0.08
722.545	0.09
722.864	0.08
723.184	0.09
723.503	0.09
723.823	0.1
724.142	0.08
724.461	0.08
724.78	0.09
725.099	0.09
725.418	0.09
725.737	0.08
726.056	0.09
726.375	0.09
726.694	0.08
727.013	0.09
727.331	0.08
727.65	0.08
727.969	0.08
728.287	0.09
728.606	0.08
728.924	0.08
729.242	0.09
729.561	0.08
729.879	0.08
730.197	0.08
730.515	0.08
730.834	0.08
731.152	0.09
731.47	0.09
731.788	0.09
732.105	0.08
732.423	0.08
732.741	0.08
733.059	0.09
733.376	0.09
733.694	0.08
734.012	0.08
734.329	0.09
734.647	0.09
734.964	0.09
735.281	0.1
735.599	0.09
735.916	0.09
736.233	0.08
736.55	0.09
736.867	0.09
737.184	0.09
737.501	0.08
737.818	0.08
738.135	0.09
738.452	0.08
738.768	0.09
739.085	0.08
739.402	0.08
739.718	0.08
740.035	0.08
740.351	0.08
740.668	0.08
740.984	0.09
741.3	0.07
741.617	0.08
741.933	0.08
742.249	0.08
742.565	0.08
742.881	0.09
743.197	0.08
743.513	0.09
743.829	0.08
744.144	0.07
744.46	0.08
744.776	0.08
745.091	0.07
745.407	0.07
745.722	0.07
746.038	0.07
746.353	0.06
746.669	0.07
746.984	0.06
747.299	0.07
747.614	0.07
747.93	0.07
748.245	0.07
748.56	0.07
748.875	0.07
749.189	0.07
749.504	0.07
749.819	0.07
750.134	0.06
750.448	0.07
750.763	0.07
751.078	0.06
751.392	0.06
751.707	0.07
752.021	0.09
752.335	0.07
752.65	0.08
752.964	0.07
753.278	0.08
753.592	0.08
753.906	0.07
754.22	0.07
754.534	0.07
754.848	0.08
755.162	0.08
755.476	0.07
755.789	0.08
756.103	0.08
756.417	0.08
756.73	0.07
757.044	0.08
757.357	0.07
757.671	0.08
757.984	0.07
758.297	0.08
758.61	0.07
758.924	0.07
759.237	0.07
759.55	0.07
759.863	0.07
760.176	0.07
760.488	0.08
760.801	0.07
761.114	0.07
761.427	0.06
761.739	0.08
762.052	0.07
762.365	0.06
762.677	0.06
762.99	0.06
763.302	0.06
763.614	0.07
763.926	0.07
764.239	0.06
764.551	0.06
764.863	0.07
765.175	0.07
765.487	0.07
765.799	0.06
766.111	0.06
766.423	0.06
766.734	0.06
767.046	0.06
767.358	0.07
767.669	0.07
767.981	0.06
768.292	0.06
768.604	0.07
768.915	0.07
769.226	0.06
769.537	0.06
769.849	0.07
770.16	0.06
770.471	0.06
770.782	0.06
771.093	0.06
771.404	0.05
771.715	0.06
772.025	0.06
772.336	0.06
772.647	0.05
772.957	0.07
773.268	0.06
773.578	0.06
773.889	0.06
774.199	0.07
774.51	0.07
774.82	0.06
775.13	0.07
775.44	0.07
775.75	0.07
776.06	0.07
776.37	0.06
776.68	0.07
776.99	0.07
777.3	0.06
777.61	0.07
777.92	0.06
778.229	0.06
778.539	0.07
778.848	0.06
779.158	0.07
779.467	0.06
779.777	0.06
780.086	0.07
780.395	0.06
780.704	0.06
781.013	0.05
781.323	0.05
781.632	0.06
781.941	0.06
782.249	0.06
782.558	0.05
782.867	0.06
783.176	0.05
783.485	0.05
783.793	0.06
784.102	0.06
784.41	0.05
784.719	0.05
785.027	0.05
785.335	0.06
785.644	0.06
785.952	0.05
786.26	0.05
786.568	0.05
786.876	0.05
787.184	0.05
787.492	0.07
787.8	0.05
788.108	0.06
788.416	0.06
788.723	0.06
789.031	0.05
789.338	0.06
789.646	0.05
789.953	0.06
790.261	0.06
790.568	0.06
790.876	0.06
791.183	0.06
791.49	0.05
791.797	0.05
792.104	0.05
792.411	0.06
792.718	0.05
793.025	0.06
793.332	0.06
793.639	0.07
793.945	0.07
794.252	0.07
794.559	0.07
794.865	0.06
795.172	0.06
795.478	0.06
795.784	0.06
796.091	0.06
796.397	0.07
796.703	0.06
797.009	0.07
797.315	0.07
797.622	0.07
797.927	0.07
798.233	0.06
798.539	0.07
798.845	0.07
799.151	0.08
799.456	0.07
799.762	0.07
800.068	0.06
800.373	0.07
800.679	0.07
800.984	0.07
801.289	0.07
801.595	0.07
801.9	0.07
802.205	0.06
802.51	0.06
802.815	0.07
803.12	0.07
803.425	0.07
803.73	0.07
804.035	0.07
804.339	0.06
804.644	0.06
804.949	0.06
805.253	0.06
805.558	0.07
805.862	0.06
806.167	0.05
806.471	0.05
806.775	0.06
807.08	0.06
807.384	0.06
807.688	0.06
807.992	0.06
808.296	0.06
808.6	0.06
808.904	0.06
809.207	0.05
809.511	0.07
809.815	0.07
810.119	0.06
810.422	0.07
810.726	0.07
811.029	0.08
811.332	0.07
811.636	0.08
811.939	0.06
812.242	0.07
812.546	0.07
812.849	0.07
813.152	0.08
813.455	0.08
813.758	0.08
814.06	0.07
814.363	0.08
814.666	0.08
814.969	0.08
815.271	0.07
815.574	0.07
815.877	0.07
816.179	0.07
816.481	0.07
816.784	0.07
817.086	0.06
817.388	0.06
817.69	0.05
817.993	0.06
818.295	0.05
818.597	0.06
818.899	0.05
819.2	0.05
819.502	0.05
819.804	0.05
820.106	0.05
820.407	0.05
820.709	0.05
821.01	0.05
821.312	0.05
821.613	0.05
821.915	0.05
822.216	0.05
822.517	0.04
822.818	0.04
823.119	0.05
823.42	0.05
823.721	0.04
824.022	0.04
824.323	0.05
824.624	0.03
824.925	0.05
825.226	0.05
825.526	0.04
825.827	0.05
826.127	0.05
826.428	0.05
826.728	0.04
827.028	0.04
827.329	0.04
827.629	0.04
827.929	0.04
828.229	0.05
828.529	0.04
828.829	0.04
829.129	0.05
829.429	0.04
829.729	0.04
830.029	0.04
830.328	0.04
830.628	0.03
830.927	0.03
831.227	0.04
831.526	0.04
831.826	0.04
832.125	0.04
832.424	0.03
832.724	0.04
833.023	0.03
833.322	0.04
833.621	0.04
833.92	0.03
834.219	0.04
834.518	0.04
834.816	0.02
835.115	0.03
835.414	0.03
835.712	0.03
836.011	0.02
836.309	0.02
836.608	0.02
836.906	0.02
837.205	0
837.503	0.01
837.801	0.01
838.099	0
838.397	-0
838.695	0
838.993	0
839.291	-0
839.589	-0
839.887	-0
840.184	-0.01
840.482	-0.01
840.78	-0
841.077	-0
841.375	-0.01
841.672	-0
841.969	-0.01
842.267	-0
842.564	-0
842.861	0
843.158	-0
843.455	-0.03
843.752	-0.02
844.049	-0.02
844.346	-0.01
844.643	-0.02
844.94	-0.02
845.236	-0.01
845.533	-0.01
845.83	-0.01
846.126	-0.02
846.423	-0.02
846.719	-0.02
847.015	-0.02
847.312	-0.03
847.608	-0.02
847.904	-0.04
848.2	-0.03
848.496	-0.03
848.792	-0.03
849.088	-0.01
849.384	-0.03
849.68	-0.04
849.975	-0.03
850.271	-0.04
850.567	-0.04
850.862	-0.04
851.158	-0.04
851.453	-0.03
851.748	-0.05
852.044	-0.04
852.339	-0.04
852.634	-0.06
852.929	-0.04
853.224	-0.05
853.519	-0.05
853.814	-0.05
854.109	-0.05
854.404	-0.05
854.699	-0.06
854.994	-0.05
855.288	-0.04
855.583	-0.05
855.877	-0.06
856.172	-0.05
856.466	-0.06
856.76	-0.06
857.055	-0.06
857.349	-0.07
857.643	-0.08
857.937	-0.09
858.231	-0.08
858.525	-0.09
858.819	-0.09
859.113	-0.1
859.407	-0.1
859.701	-0.1
859.994	-0.1
860.288	-0.09
860.581	-0.1
860.875	-0.1
861.168	-0.1
861.462	-0.1
861.755	-0.09
862.048	-0.11
862.341	-0.1
862.634	-0.1
862.928	-0.1
863.221	-0.1
863.513	-0.11
863.806	-0.11
864.099	-0.11
864.392	-0.11
864.685	-0.1
864.977	-0.11
865.27	-0.11
865.562	-0.11
865.855	-0.11
866.147	-0.12
866.44	-0.12
866.732	-0.12
867.024	-0.12
867.316	-0.11
867.608	-0.12
867.9	-0.12
868.192	-0.12
868.484	-0.13
868.776	-0.13
869.068	-0.12
869.359	-0.12
869.651	-0.12
869.943	-0.14
870.234	-0.14
870.526	-0.14
870.817	-0.14
871.108	-0.14
871.4	-0.13
871.691	-0.14
871.982	-0.15
872.273	-0.16
872.564	-0.14
872.855	-0.15
873.146	-0.15
873.437	-0.15
873.728	-0.17
874.019	-0.16
874.309	-0.17
874.6	-0.15
874.89	-0.15
875.181	-0.17
875.471	-0.15
875.762	-0.16
876.052	-0.15
876.342	-0.15
876.632	-0.17
876.922	-0.17
877.213	-0.16
877.503	-0.18
877.792	-0.15
878.082	-0.17
878.372	-0.16
878.662	-0.18
878.952	-0.17
879.241	-0.16
879.531	-0.16
879.82	-0.17
880.11	-0.16
880.399	-0.15
880.688	-0.14
880.978	-0.14
881.267	-0.14
