Data from 12-12-AQDScycling_Absorbance__771__00771.txt Node

Date: Tue Dec 12 14:09:29 EST 2023
User: kyuminlee
Spectrometer: FLMS00943
Trigger mode: 0
Integration Time (sec): 1.000000E-1
Scans to average: 1
Electric dark correction enabled: true
Nonlinearity correction enabled: false
Boxcar width: 0
XAxis mode: Wavelengths
Number of Pixels in Spectrum: 2048
>>>>>Begin Spectral Data<<<<<
179.651	1.13
180.037	1.13
180.424	1.13
180.81	-0
181.197	0.1
181.583	-0
181.97	-0.22
182.356	-0
182.743	-0
183.129	0.35
183.515	0.41
183.901	-2.57
184.288	-0
184.674	-0
185.06	-0.84
185.446	-0
185.832	-0
186.218	0.06
186.604	-0
186.99	-0.34
187.376	-0.12
187.762	-0
188.148	0.42
188.534	-0.27
188.92	0.03
189.305	0.14
189.691	0.08
190.077	0.27
190.463	0.02
190.848	-0
191.234	0.2
191.619	0.13
192.005	0.12
192.391	0.21
192.776	0.13
193.161	0.22
193.547	0.13
193.932	-0
194.318	0.08
194.703	0.1
195.088	0.29
195.473	0.32
195.859	0.21
196.244	0.2
196.629	0.03
197.014	0.06
197.399	0.08
197.784	0.11
198.169	0.11
198.554	0.33
198.939	0.19
199.324	0.13
199.709	0.08
200.094	0.11
200.478	0.25
200.863	0.18
201.248	0.05
201.633	0.22
202.017	0.15
202.402	0.16
202.787	0.28
203.171	0.17
203.556	0.24
203.94	0.29
204.325	0.25
204.709	0.23
205.093	0.12
205.478	0.14
205.862	0.05
206.246	0.29
206.631	0.2
207.015	0.16
207.399	0.19
207.783	0.22
208.167	0.21
208.551	0.27
208.935	0.07
209.319	0.15
209.703	0.3
210.087	0.38
210.471	0.22
210.855	0.14
211.239	0.2
211.623	0.21
212.007	0.37
212.39	0.32
212.774	0.14
213.158	0.11
213.541	0.24
213.925	0.28
214.309	0.24
214.692	0.3
215.076	0.28
215.459	0.22
215.842	0.13
216.226	0.22
216.609	0.22
216.993	0.17
217.376	0.31
217.759	0.32
218.142	0.29
218.525	0.63
218.909	0.46
219.292	0.38
219.675	0.44
220.058	0.54
220.441	0.48
220.824	0.54
221.207	0.58
221.59	0.53
221.973	0.61
222.355	0.71
222.738	0.65
223.121	0.51
223.504	0.52
223.886	0.84
224.269	0.72
224.652	0.64
225.034	0.89
225.417	0.68
225.799	0.86
226.182	0.87
226.564	0.89
226.947	0.8
227.329	0.89
227.711	0.95
228.094	1.09
228.476	0.92
228.858	0.76
229.24	0.87
229.623	1.02
230.005	0.9
230.387	0.88
230.769	0.85
231.151	0.94
231.533	0.92
231.915	0.92
232.297	1.09
232.679	1.01
233.061	1.15
233.442	1
233.824	0.95
234.206	1.23
234.588	1.09
234.969	1.04
235.351	1.03
235.733	1.05
236.114	1.24
236.496	1.22
236.877	1.24
237.259	1.14
237.64	1.1
238.022	1.03
238.403	1.03
238.784	1.01
239.165	1
239.547	1.07
239.928	1.1
240.309	1.05
240.69	1.04
241.071	1.22
241.452	1.06
241.834	1.07
242.215	1.1
242.595	1.08
242.976	1.09
243.357	1.11
243.738	1.25
244.119	1.29
244.5	1.18
244.881	1.18
245.261	1.2
245.642	1.14
246.023	1.22
246.403	1.15
246.784	1.16
247.164	1.37
247.545	1.24
247.925	1.34
248.306	1.23
248.686	1.39
249.067	1.21
249.447	1.41
249.827	1.81
250.207	1.33
250.588	1.32
250.968	1.43
251.348	1.35
251.728	1.42
252.108	1.38
252.488	1.38
252.868	1.36
253.248	1.3
253.628	1.48
254.008	1.35
254.388	1.37
254.768	1.55
255.147	1.35
255.527	1.59
255.907	1.29
256.287	1.35
256.666	1.57
257.046	1.64
257.425	1.51
257.805	1.35
258.184	1.35
258.564	1.35
258.943	1.51
259.323	1.49
259.702	1.5
260.081	1.56
260.461	1.63
260.84	1.52
261.219	1.86
261.598	1.55
261.977	1.5
262.356	1.64
262.736	1.53
263.115	1.61
263.494	1.43
263.873	1.48
264.251	1.77
264.63	1.67
265.009	1.4
265.388	1.44
265.767	1.4
266.145	1.39
266.524	1.39
266.903	1.55
267.281	1.37
267.66	1.48
268.039	1.44
268.417	1.46
268.796	1.57
269.174	1.42
269.552	1.33
269.931	1.52
270.309	1.58
270.687	1.77
271.066	1.76
271.444	1.34
271.822	1.54
272.2	1.56
272.578	1.33
272.956	1.36
273.334	1.32
273.712	1.48
274.09	1.37
274.468	1.56
274.846	1.24
275.224	1.3
275.602	1.38
275.98	2.05
276.357	1.34
276.735	1.53
277.113	1.34
277.49	1.54
277.868	1.4
278.246	1.34
278.623	1.35
279.001	1.48
279.378	1.42
279.756	1.45
280.133	1.67
280.51	1.43
280.888	1.51
281.265	1.41
281.642	1.44
282.019	1.81
282.396	1.59
282.773	1.52
283.151	1.54
283.528	1.45
283.905	1.4
284.282	1.48
284.659	1.65
285.035	1.34
285.412	1.31
285.789	1.66
286.166	1.56
286.543	1.55
286.919	1.49
287.296	1.46
287.673	1.89
288.049	1.57
288.426	1.78
288.802	1.51
289.179	1.71
289.555	1.81
289.932	1.46
290.308	1.37
290.684	1.43
291.061	1.5
291.437	1.75
291.813	1.6
292.189	1.36
292.565	1.3
292.942	1.46
293.318	1.5
293.694	1.42
294.07	1.37
294.446	1.39
294.822	1.59
295.197	1.43
295.573	1.47
295.949	1.6
296.325	1.38
296.701	1.46
297.076	1.76
297.452	1.51
297.828	1.44
298.203	1.71
298.579	1.42
298.954	1.45
299.33	1.48
299.705	1.45
300.081	1.53
300.456	1.39
300.831	1.41
301.206	1.54
301.582	1.44
301.957	1.41
302.332	1.63
302.707	1.49
303.082	1.34
303.457	1.51
303.832	1.46
304.207	1.33
304.582	1.34
304.957	1.45
305.332	1.43
305.707	1.36
306.082	1.47
306.456	1.41
306.831	1.27
307.206	1.37
307.58	1.36
307.955	1.24
308.33	1.31
308.704	1.33
309.079	1.25
309.453	1.43
309.828	1.32
310.202	1.32
310.576	1.28
310.951	1.43
311.325	1.35
311.699	1.24
312.073	1.22
312.447	1.28
312.821	1.32
313.196	1.36
313.57	1.23
313.944	1.27
314.317	1.24
314.691	1.35
315.065	1.33
315.439	1.35
315.813	1.35
316.187	1.17
316.56	1.37
316.934	1.33
317.308	1.26
317.681	1.33
318.055	1.29
318.428	1.3
318.802	1.26
319.175	1.34
319.549	1.36
319.922	1.22
320.295	1.31
320.669	1.43
321.042	1.32
321.415	1.45
321.788	1.32
322.162	1.36
322.535	1.35
322.908	1.42
323.281	1.24
323.654	1.48
324.027	1.29
324.4	1.32
324.773	1.35
325.145	1.37
325.518	1.2
325.891	1.26
326.264	1.62
326.636	1.29
327.009	1.28
327.382	1.42
327.754	1.38
328.127	1.36
328.499	1.4
328.872	1.4
329.244	1.43
329.616	1.29
329.989	1.34
330.361	1.34
330.733	1.22
331.106	1.35
331.478	1.48
331.85	1.31
332.222	1.36
332.594	1.4
332.966	1.4
333.338	1.54
333.71	1.42
334.082	1.45
334.454	1.33
334.826	1.38
335.197	1.43
335.569	1.38
335.941	1.37
336.312	1.33
336.684	1.42
337.056	1.32
337.427	1.49
337.799	1.41
338.17	1.57
338.542	1.44
338.913	1.42
339.284	1.45
339.656	1.38
340.027	1.49
340.398	1.41
340.769	1.49
341.141	1.52
341.512	1.37
341.883	1.53
342.254	1.44
342.625	1.47
342.996	1.38
343.367	1.44
343.738	1.41
344.108	1.3
344.479	1.54
344.85	1.27
345.221	1.31
345.591	1.31
345.962	1.3
346.333	1.42
346.703	1.29
347.074	1.29
347.444	1.33
347.815	1.38
348.185	1.34
348.556	1.29
348.926	1.39
349.296	1.39
349.666	1.28
350.037	1.32
350.407	1.2
350.777	1.29
351.147	1.32
351.517	1.42
351.887	1.41
352.257	1.34
352.627	1.23
352.997	1.28
353.367	1.44
353.737	1.52
354.106	1.37
354.476	1.43
354.846	1.44
355.216	1.38
355.585	1.43
355.955	1.45
356.324	1.43
356.694	1.48
357.063	1.37
357.433	1.41
357.802	1.42
358.171	1.5
358.541	1.41
358.91	1.44
359.279	1.51
359.648	1.39
360.017	1.5
360.387	1.51
360.756	1.36
361.125	1.54
361.494	1.57
361.863	1.43
362.231	1.49
362.6	1.52
362.969	1.59
363.338	1.35
363.707	1.6
364.075	1.58
364.444	1.31
364.813	1.35
365.181	1.48
365.55	1.41
365.918	1.6
366.287	1.47
366.655	1.55
367.024	1.43
367.392	1.45
367.76	1.49
368.128	1.44
368.497	1.44
368.865	1.4
369.233	1.53
369.601	1.47
369.969	1.5
370.337	1.39
370.705	1.46
371.073	1.42
371.441	1.43
371.809	1.41
372.177	1.47
372.544	1.45
372.912	1.6
373.28	1.46
373.647	1.47
374.015	1.6
374.383	1.67
374.75	1.74
375.118	1.58
375.485	1.52
375.853	1.51
376.22	1.65
376.587	1.44
376.955	1.66
377.322	1.6
377.689	1.5
378.056	1.47
378.423	1.45
378.79	1.55
379.157	1.51
379.524	1.6
379.891	1.56
380.258	1.63
380.625	1.57
380.992	1.51
381.359	1.76
381.726	1.89
382.092	1.5
382.459	1.57
382.826	1.48
383.192	1.57
383.559	1.74
383.925	1.61
384.292	1.5
384.658	1.86
385.025	1.61
385.391	1.91
385.757	1.68
386.123	1.63
386.49	1.64
386.856	1.71
387.222	1.56
387.588	1.61
387.954	1.83
388.32	1.8
388.686	1.58
389.052	1.66
389.418	1.56
389.784	1.54
390.15	1.63
390.515	1.37
390.881	1.69
391.247	1.53
391.613	1.69
391.978	1.5
392.344	1.71
392.709	1.77
393.075	1.54
393.44	1.68
393.806	1.47
394.171	1.48
394.536	1.56
394.902	1.65
395.267	1.66
395.632	1.51
395.997	1.48
396.362	1.51
396.727	1.57
397.092	1.51
397.457	1.6
397.822	1.53
398.187	1.57
398.552	1.78
398.917	1.71
399.282	1.5
399.646	1.7
400.011	1.66
400.376	1.46
400.74	1.53
401.105	1.44
401.47	1.56
401.834	1.61
402.199	1.55
402.563	1.57
402.927	1.43
403.292	1.82
403.656	1.56
404.02	1.55
404.384	1.57
404.749	1.72
405.113	1.78
405.477	1.64
405.841	1.46
406.205	1.6
406.569	1.54
406.933	1.63
407.296	1.58
407.66	1.55
408.024	1.45
408.388	1.52
408.752	1.48
409.115	1.64
409.479	1.49
409.842	1.43
410.206	1.42
410.569	1.41
410.933	1.49
411.296	1.33
411.66	1.52
412.023	1.39
412.386	1.39
412.749	1.37
413.113	1.59
413.476	1.32
413.839	1.41
414.202	1.41
414.565	1.34
414.928	1.4
415.291	1.37
415.654	1.37
416.017	1.49
416.38	1.41
416.742	1.37
417.105	1.52
417.468	1.37
417.83	1.39
418.193	1.39
418.556	1.37
418.918	1.37
419.281	1.46
419.643	1.34
420.005	1.43
420.368	1.36
420.73	1.35
421.092	1.39
421.455	1.44
421.817	1.3
422.179	1.32
422.541	1.39
422.903	1.48
423.265	1.38
423.627	1.33
423.989	1.37
424.351	1.41
424.713	1.4
425.075	1.32
425.436	1.39
425.798	1.4
426.16	1.42
426.521	1.34
426.883	1.42
427.245	1.3
427.606	1.33
427.967	1.25
428.329	1.34
428.69	1.39
429.052	1.27
429.413	1.35
429.774	1.38
430.135	1.36
430.497	1.33
430.858	1.39
431.219	1.34
431.58	1.27
431.941	1.27
432.302	1.34
432.663	1.3
433.024	1.4
433.384	1.34
433.745	1.22
434.106	1.34
434.467	1.29
434.827	1.37
435.188	1.34
435.548	1.39
435.909	1.27
436.269	1.29
436.63	1.25
436.99	1.23
437.351	1.21
437.711	1.27
438.071	1.25
438.431	1.21
438.792	1.2
439.152	1.25
439.512	1.21
439.872	1.17
440.232	1.24
440.592	1.22
440.952	1.21
441.312	1.17
441.671	1.21
442.031	1.21
442.391	1.16
442.751	1.18
443.11	1.17
443.47	1.18
443.83	1.14
444.189	1.14
444.549	1.1
444.908	1.1
445.267	1.15
445.627	1.11
445.986	1.1
446.345	1.1
446.705	1.09
447.064	1.09
447.423	1.09
447.782	1.08
448.141	1.09
448.5	1.03
448.859	1.06
449.218	1.05
449.577	1.06
449.936	1.05
450.295	1.06
450.653	1.02
451.012	0.99
451.371	1.02
451.729	1.01
452.088	1.02
452.447	1.03
452.805	1.01
453.163	0.97
453.522	0.98
453.88	0.98
454.239	0.97
454.597	0.94
454.955	0.93
455.313	0.91
455.671	0.92
456.029	0.92
456.388	0.9
456.746	0.9
457.104	0.87
457.461	0.86
457.819	0.86
458.177	0.86
458.535	0.84
458.893	0.84
459.25	0.82
459.608	0.82
459.966	0.8
460.323	0.8
460.681	0.78
461.038	0.77
461.396	0.77
461.753	0.77
462.111	0.74
462.468	0.75
462.825	0.73
463.182	0.72
463.54	0.71
463.897	0.71
464.254	0.71
464.611	0.7
464.968	0.67
465.325	0.68
465.682	0.65
466.039	0.66
466.395	0.64
466.752	0.64
467.109	0.63
467.466	0.63
467.822	0.61
468.179	0.6
468.535	0.6
468.892	0.59
469.248	0.58
469.605	0.57
469.961	0.56
470.318	0.56
470.674	0.55
471.03	0.54
471.386	0.54
471.743	0.52
472.099	0.52
472.455	0.52
472.811	0.51
473.167	0.51
473.523	0.49
473.879	0.49
474.235	0.48
474.59	0.47
474.946	0.46
475.302	0.46
475.657	0.45
476.013	0.45
476.369	0.45
476.724	0.43
477.08	0.44
477.435	0.42
477.791	0.41
478.146	0.41
478.501	0.41
478.857	0.4
479.212	0.39
479.567	0.39
479.922	0.37
480.277	0.37
480.632	0.37
480.987	0.37
481.342	0.37
481.697	0.35
482.052	0.35
482.407	0.35
482.762	0.34
483.116	0.34
483.471	0.32
483.826	0.32
484.18	0.32
484.535	0.32
484.89	0.32
485.244	0.31
485.598	0.31
485.953	0.3
486.307	0.3
486.661	0.29
487.016	0.29
487.37	0.29
487.724	0.28
488.078	0.28
488.432	0.28
488.786	0.27
489.14	0.27
489.494	0.26
489.848	0.26
490.202	0.25
490.556	0.26
490.91	0.25
491.263	0.25
491.617	0.25
491.971	0.25
492.324	0.24
492.678	0.24
493.031	0.24
493.385	0.24
493.738	0.24
494.091	0.23
494.445	0.23
494.798	0.23
495.151	0.22
495.504	0.22
495.857	0.22
496.21	0.22
496.564	0.22
496.916	0.22
497.269	0.21
497.622	0.21
497.975	0.2
498.328	0.21
498.681	0.2
499.033	0.2
499.386	0.2
499.739	0.2
500.091	0.2
500.444	0.19
500.796	0.2
501.149	0.19
501.501	0.2
501.854	0.19
502.206	0.19
502.558	0.19
502.91	0.19
503.263	0.19
503.615	0.19
503.967	0.19
504.319	0.19
504.671	0.18
505.023	0.18
505.375	0.18
505.726	0.19
506.078	0.18
506.43	0.17
506.782	0.18
507.133	0.18
507.485	0.18
507.837	0.19
508.188	0.18
508.54	0.18
508.891	0.19
509.243	0.18
509.594	0.17
509.945	0.18
510.296	0.18
510.648	0.18
510.999	0.17
511.35	0.17
511.701	0.17
512.052	0.18
512.403	0.18
512.754	0.17
513.105	0.17
513.456	0.16
513.807	0.17
514.157	0.17
514.508	0.17
514.859	0.16
515.209	0.17
515.56	0.17
515.91	0.17
516.261	0.17
516.611	0.17
516.962	0.17
517.312	0.17
517.662	0.16
518.013	0.16
518.363	0.17
518.713	0.17
519.063	0.18
519.413	0.17
519.763	0.17
520.113	0.17
520.463	0.18
520.813	0.17
521.163	0.18
521.512	0.18
521.862	0.17
522.212	0.17
522.562	0.18
522.911	0.17
523.261	0.17
523.61	0.17
523.96	0.18
524.309	0.19
524.658	0.18
525.008	0.17
525.357	0.17
525.706	0.18
526.056	0.17
526.405	0.17
526.754	0.17
527.103	0.17
527.452	0.17
527.801	0.17
528.15	0.17
528.499	0.17
528.847	0.18
529.196	0.19
529.545	0.19
529.893	0.18
530.242	0.18
530.591	0.18
530.939	0.19
531.288	0.18
531.636	0.18
531.985	0.18
532.333	0.19
532.681	0.18
533.029	0.17
533.378	0.18
533.726	0.18
534.074	0.18
534.422	0.18
534.77	0.18
535.118	0.18
535.466	0.18
535.814	0.17
536.162	0.18
536.509	0.19
536.857	0.18
537.205	0.19
537.552	0.19
537.9	0.18
538.248	0.18
538.595	0.19
538.943	0.19
539.29	0.19
539.637	0.18
539.985	0.19
540.332	0.19
540.679	0.18
541.026	0.19
541.373	0.19
541.721	0.18
542.068	0.18
542.415	0.18
542.762	0.18
543.108	0.18
543.455	0.18
543.802	0.18
544.149	0.18
544.496	0.18
544.842	0.18
545.189	0.17
545.535	0.18
545.882	0.17
546.228	0.17
546.575	0.17
546.921	0.17
547.267	0.17
547.614	0.18
547.96	0.18
548.306	0.17
548.652	0.17
548.998	0.18
549.344	0.17
549.69	0.17
550.036	0.17
550.382	0.17
550.728	0.17
551.074	0.18
551.42	0.18
551.765	0.18
552.111	0.18
552.457	0.18
552.802	0.18
553.148	0.18
553.493	0.18
553.839	0.19
554.184	0.19
554.529	0.18
554.875	0.19
555.22	0.18
555.565	0.18
555.91	0.18
556.255	0.19
556.6	0.19
556.945	0.18
557.29	0.18
557.635	0.19
557.98	0.18
558.325	0.19
558.67	0.18
559.014	0.19
559.359	0.18
559.704	0.19
560.048	0.18
560.393	0.18
560.737	0.17
561.082	0.19
561.426	0.17
561.77	0.18
562.115	0.18
562.459	0.18
562.803	0.17
563.147	0.18
563.491	0.19
563.835	0.18
564.179	0.18
564.523	0.18
564.867	0.18
565.211	0.18
565.555	0.18
565.899	0.19
566.242	0.18
566.586	0.18
566.93	0.18
567.273	0.19
567.617	0.18
567.96	0.18
568.304	0.18
568.647	0.18
568.99	0.19
569.334	0.19
569.677	0.19
570.02	0.18
570.363	0.19
570.706	0.18
571.049	0.19
571.392	0.18
571.735	0.18
572.078	0.19
572.421	0.19
572.764	0.19
573.106	0.19
573.449	0.18
573.792	0.19
574.134	0.19
574.477	0.19
574.819	0.19
575.162	0.19
575.504	0.18
575.847	0.18
576.189	0.18
576.531	0.19
576.873	0.18
577.215	0.19
577.558	0.18
577.9	0.18
578.242	0.18
578.584	0.19
578.926	0.18
579.267	0.18
579.609	0.19
579.951	0.18
580.293	0.18
580.634	0.19
580.976	0.18
581.318	0.18
581.659	0.18
582.001	0.19
582.342	0.18
582.683	0.18
583.025	0.17
583.366	0.18
583.707	0.18
584.049	0.18
584.39	0.18
584.731	0.18
585.072	0.18
585.413	0.19
585.754	0.18
586.095	0.19
586.435	0.18
586.776	0.18
587.117	0.18
587.458	0.18
587.798	0.18
588.139	0.18
588.48	0.18
588.82	0.18
589.161	0.17
589.501	0.18
589.841	0.18
590.182	0.18
590.522	0.17
590.862	0.18
591.202	0.18
591.542	0.18
591.882	0.17
592.222	0.18
592.562	0.18
592.902	0.17
593.242	0.18
593.582	0.17
593.922	0.18
594.261	0.17
594.601	0.17
594.941	0.17
595.28	0.17
595.62	0.17
595.959	0.17
596.299	0.17
596.638	0.17
596.977	0.18
597.317	0.18
597.656	0.18
597.995	0.18
598.334	0.18
598.673	0.18
599.012	0.17
599.351	0.18
599.69	0.18
600.029	0.19
600.368	0.18
600.707	0.18
601.046	0.18
601.384	0.19
601.723	0.19
602.061	0.17
602.4	0.18
602.738	0.18
603.077	0.18
603.415	0.18
603.754	0.18
604.092	0.18
604.43	0.17
604.768	0.18
605.107	0.17
605.445	0.17
605.783	0.18
606.121	0.18
606.459	0.18
606.796	0.18
607.134	0.17
607.472	0.17
607.81	0.17
608.148	0.16
608.485	0.18
608.823	0.17
609.16	0.17
609.498	0.18
609.835	0.18
610.173	0.17
610.51	0.17
610.847	0.18
611.185	0.18
611.522	0.17
611.859	0.18
612.196	0.17
612.533	0.18
612.87	0.18
613.207	0.18
613.544	0.18
613.881	0.19
614.217	0.18
614.554	0.17
614.891	0.18
615.228	0.18
615.564	0.18
615.901	0.18
616.237	0.19
616.574	0.18
616.91	0.19
617.246	0.18
617.583	0.18
617.919	0.19
618.255	0.19
618.591	0.18
618.927	0.18
619.263	0.18
619.599	0.18
619.935	0.18
620.271	0.18
620.607	0.18
620.943	0.18
621.279	0.19
621.614	0.18
621.95	0.18
622.286	0.17
622.621	0.18
622.957	0.18
623.292	0.17
623.627	0.17
623.963	0.17
624.298	0.17
624.633	0.18
624.968	0.17
625.304	0.17
625.639	0.17
625.974	0.17
626.309	0.16
626.644	0.17
626.979	0.18
627.313	0.18
627.648	0.17
627.983	0.17
628.318	0.17
628.652	0.16
628.987	0.17
629.321	0.17
629.656	0.17
629.99	0.16
630.325	0.16
630.659	0.16
630.993	0.16
631.327	0.16
631.662	0.16
631.996	0.16
632.33	0.16
632.664	0.16
632.998	0.15
633.332	0.15
633.666	0.15
633.999	0.15
634.333	0.15
634.667	0.15
635.001	0.14
635.334	0.15
635.668	0.15
636.001	0.15
636.335	0.16
636.668	0.16
637.001	0.15
637.335	0.15
637.668	0.15
638.001	0.15
638.334	0.15
638.668	0.15
639.001	0.15
639.334	0.14
639.667	0.14
639.999	0.15
640.332	0.15
640.665	0.15
640.998	0.15
641.331	0.16
641.663	0.15
641.996	0.15
642.328	0.16
642.661	0.15
642.993	0.16
643.326	0.16
643.658	0.15
643.99	0.15
644.323	0.15
644.655	0.15
644.987	0.16
645.319	0.16
645.651	0.16
645.983	0.15
646.315	0.15
646.647	0.16
646.979	0.17
647.31	0.15
647.642	0.15
647.974	0.15
648.305	0.16
648.637	0.15
648.968	0.16
649.3	0.15
649.631	0.15
649.963	0.15
650.294	0.15
650.625	0.15
650.957	0.16
651.288	0.15
651.619	0.15
651.95	0.15
652.281	0.15
652.612	0.14
652.943	0.16
653.274	0.16
653.604	0.15
653.935	0.15
654.266	0.15
654.596	0.15
654.927	0.14
655.258	0.15
655.588	0.15
655.918	0.15
656.249	0.12
656.579	0.14
656.909	0.14
657.24	0.14
657.57	0.15
657.9	0.14
658.23	0.14
658.56	0.15
658.89	0.15
659.22	0.14
659.55	0.15
659.88	0.15
660.209	0.14
660.539	0.15
660.869	0.15
661.198	0.14
661.528	0.14
661.857	0.14
662.187	0.15
662.516	0.14
662.846	0.13
663.175	0.14
663.504	0.14
663.833	0.13
664.163	0.14
664.492	0.14
664.821	0.14
665.15	0.14
665.479	0.14
665.807	0.14
666.136	0.14
666.465	0.14
666.794	0.15
667.122	0.14
667.451	0.14
667.78	0.14
668.108	0.15
668.437	0.14
668.765	0.15
669.093	0.15
669.422	0.15
669.75	0.15
670.078	0.14
670.406	0.14
670.734	0.15
671.062	0.14
671.39	0.14
671.718	0.14
672.046	0.14
672.374	0.13
672.702	0.13
673.029	0.13
673.357	0.14
673.685	0.14
674.012	0.13
674.34	0.13
674.667	0.14
674.995	0.14
675.322	0.14
675.649	0.13
675.977	0.13
676.304	0.13
676.631	0.14
676.958	0.13
677.285	0.13
677.612	0.13
677.939	0.13
678.266	0.13
678.593	0.13
678.92	0.13
679.246	0.12
679.573	0.13
679.9	0.12
680.226	0.13
680.553	0.12
680.879	0.13
681.206	0.13
681.532	0.12
681.858	0.12
682.184	0.13
682.511	0.13
682.837	0.12
683.163	0.13
683.489	0.13
683.815	0.13
684.141	0.13
684.467	0.12
684.793	0.13
685.118	0.12
685.444	0.13
685.77	0.13
686.095	0.12
686.421	0.12
686.746	0.13
687.072	0.13
687.397	0.12
687.723	0.12
688.048	0.13
688.373	0.12
688.698	0.12
689.023	0.12
689.349	0.12
689.674	0.13
689.999	0.12
690.323	0.11
690.648	0.11
690.973	0.11
691.298	0.11
691.623	0.11
691.947	0.11
692.272	0.11
692.596	0.11
692.921	0.12
693.245	0.11
693.57	0.12
693.894	0.12
694.218	0.13
694.543	0.12
694.867	0.12
695.191	0.11
695.515	0.12
695.839	0.12
696.163	0.12
696.487	0.11
696.811	0.12
697.135	0.12
697.458	0.12
697.782	0.12
698.106	0.12
698.429	0.11
698.753	0.11
699.076	0.11
699.4	0.11
699.723	0.12
700.046	0.11
700.37	0.12
700.693	0.12
701.016	0.12
701.339	0.12
701.662	0.12
701.985	0.11
702.308	0.11
702.631	0.11
702.954	0.11
703.277	0.11
703.599	0.11
703.922	0.1
704.245	0.11
704.567	0.11
704.89	0.11
705.212	0.11
705.535	0.1
705.857	0.1
706.179	0.1
706.502	0.1
706.824	0.1
707.146	0.1
707.468	0.11
707.79	0.1
708.112	0.11
708.434	0.11
708.756	0.1
709.078	0.11
709.399	0.11
709.721	0.1
710.043	0.1
710.364	0.11
710.686	0.11
711.007	0.11
711.329	0.11
711.65	0.11
711.972	0.1
712.293	0.1
712.614	0.11
712.935	0.11
713.256	0.11
713.577	0.11
713.898	0.1
714.219	0.1
714.54	0.1
714.861	0.1
715.182	0.1
715.503	0.1
715.823	0.1
716.144	0.1
716.464	0.1
716.785	0.09
717.105	0.09
717.426	0.1
717.746	0.09
718.066	0.09
718.387	0.09
718.707	0.09
719.027	0.1
719.347	0.09
719.667	0.1
719.987	0.09
720.307	0.08
720.627	0.08
720.947	0.1
721.266	0.09
721.586	0.08
721.906	0.09
722.225	0.08
722.545	0.09
722.864	0.09
723.184	0.1
723.503	0.09
723.823	0.1
724.142	0.09
724.461	0.09
724.78	0.09
725.099	0.09
725.418	0.09
725.737	0.08
726.056	0.1
726.375	0.09
726.694	0.08
727.013	0.1
727.331	0.08
727.65	0.08
727.969	0.09
728.287	0.09
728.606	0.09
728.924	0.09
729.242	0.09
729.561	0.09
729.879	0.09
730.197	0.09
730.515	0.09
730.834	0.09
731.152	0.08
731.47	0.09
731.788	0.09
732.105	0.09
732.423	0.09
732.741	0.08
733.059	0.09
733.376	0.09
733.694	0.08
734.012	0.09
734.329	0.09
734.647	0.09
734.964	0.09
735.281	0.09
735.599	0.09
735.916	0.1
736.233	0.09
736.55	0.09
736.867	0.09
737.184	0.09
737.501	0.09
737.818	0.09
738.135	0.09
738.452	0.08
738.768	0.09
739.085	0.09
739.402	0.08
739.718	0.09
740.035	0.08
740.351	0.08
740.668	0.09
740.984	0.08
741.3	0.09
741.617	0.09
741.933	0.08
742.249	0.09
742.565	0.09
742.881	0.09
743.197	0.09
743.513	0.08
743.829	0.08
744.144	0.08
744.46	0.08
744.776	0.09
745.091	0.08
745.407	0.09
745.722	0.08
746.038	0.08
746.353	0.07
746.669	0.08
746.984	0.07
747.299	0.08
747.614	0.08
747.93	0.08
748.245	0.08
748.56	0.07
748.875	0.08
749.189	0.07
749.504	0.07
749.819	0.07
750.134	0.08
750.448	0.08
750.763	0.07
751.078	0.06
751.392	0.07
751.707	0.08
752.021	0.08
752.335	0.08
752.65	0.08
752.964	0.08
753.278	0.07
753.592	0.07
753.906	0.06
754.22	0.08
754.534	0.07
754.848	0.07
755.162	0.08
755.476	0.08
755.789	0.07
756.103	0.06
756.417	0.08
756.73	0.08
757.044	0.08
757.357	0.07
757.671	0.07
757.984	0.07
758.297	0.08
758.61	0.07
758.924	0.08
759.237	0.07
759.55	0.07
759.863	0.07
760.176	0.07
760.488	0.07
760.801	0.07
761.114	0.07
761.427	0.07
761.739	0.07
762.052	0.07
762.365	0.07
762.677	0.07
762.99	0.07
763.302	0.07
763.614	0.07
763.926	0.07
764.239	0.07
764.551	0.06
764.863	0.07
765.175	0.07
765.487	0.07
765.799	0.07
766.111	0.06
766.423	0.06
766.734	0.07
767.046	0.06
767.358	0.07
767.669	0.07
767.981	0.06
768.292	0.07
768.604	0.07
768.915	0.06
769.226	0.07
769.537	0.06
769.849	0.07
770.16	0.06
770.471	0.06
770.782	0.06
771.093	0.06
771.404	0.05
771.715	0.05
772.025	0.07
772.336	0.06
772.647	0.05
772.957	0.06
773.268	0.06
773.578	0.06
773.889	0.07
774.199	0.07
774.51	0.06
774.82	0.07
775.13	0.07
775.44	0.07
775.75	0.07
776.06	0.07
776.37	0.06
776.68	0.08
776.99	0.07
777.3	0.06
777.61	0.07
777.92	0.07
778.229	0.07
778.539	0.06
778.848	0.07
779.158	0.07
779.467	0.07
779.777	0.07
780.086	0.07
780.395	0.06
780.704	0.06
781.013	0.06
781.323	0.05
781.632	0.06
781.941	0.06
782.249	0.06
782.558	0.05
782.867	0.06
783.176	0.06
783.485	0.05
783.793	0.06
784.102	0.06
784.41	0.06
784.719	0.06
785.027	0.06
785.335	0.06
785.644	0.05
785.952	0.06
786.26	0.05
786.568	0.05
786.876	0.05
787.184	0.07
787.492	0.06
787.8	0.06
788.108	0.06
788.416	0.05
788.723	0.06
789.031	0.05
789.338	0.06
789.646	0.06
789.953	0.06
790.261	0.07
790.568	0.07
790.876	0.07
791.183	0.06
791.49	0.06
791.797	0.06
792.104	0.06
792.411	0.07
792.718	0.06
793.025	0.07
793.332	0.06
793.639	0.07
793.945	0.07
794.252	0.06
794.559	0.06
794.865	0.06
795.172	0.06
795.478	0.06
795.784	0.07
796.091	0.07
796.397	0.07
796.703	0.07
797.009	0.07
797.315	0.07
797.622	0.07
797.927	0.07
798.233	0.06
798.539	0.07
798.845	0.07
799.151	0.07
799.456	0.07
799.762	0.06
800.068	0.07
800.373	0.08
800.679	0.06
800.984	0.07
801.289	0.06
801.595	0.07
801.9	0.06
802.205	0.07
802.51	0.07
802.815	0.07
803.12	0.07
803.425	0.07
803.73	0.06
804.035	0.06
804.339	0.06
804.644	0.06
804.949	0.07
805.253	0.06
805.558	0.07
805.862	0.06
806.167	0.06
806.471	0.05
806.775	0.07
807.08	0.06
807.384	0.06
807.688	0.07
807.992	0.06
808.296	0.05
808.6	0.06
808.904	0.07
809.207	0.06
809.511	0.07
809.815	0.07
810.119	0.07
810.422	0.08
810.726	0.08
811.029	0.07
811.332	0.07
811.636	0.07
811.939	0.07
812.242	0.07
812.546	0.07
812.849	0.07
813.152	0.07
813.455	0.07
813.758	0.07
814.06	0.07
814.363	0.07
814.666	0.07
814.969	0.07
815.271	0.08
815.574	0.07
815.877	0.06
816.179	0.07
816.481	0.06
816.784	0.06
817.086	0.06
817.388	0.04
817.69	0.06
817.993	0.05
818.295	0.06
818.597	0.05
818.899	0.05
819.2	0.05
819.502	0.05
819.804	0.04
820.106	0.05
820.407	0.04
820.709	0.05
821.01	0.05
821.312	0.05
821.613	0.04
821.915	0.05
822.216	0.05
822.517	0.04
822.818	0.04
823.119	0.05
823.42	0.05
823.721	0.04
824.022	0.04
824.323	0.05
824.624	0.05
824.925	0.05
825.226	0.06
825.526	0.04
825.827	0.05
826.127	0.04
826.428	0.05
826.728	0.04
827.028	0.04
827.329	0.04
827.629	0.04
827.929	0.04
828.229	0.04
828.529	0.05
828.829	0.04
829.129	0.04
829.429	0.04
829.729	0.04
830.029	0.04
830.328	0.04
830.628	0.03
830.927	0.03
831.227	0.04
831.526	0.03
831.826	0.04
832.125	0.04
832.424	0.04
832.724	0.04
833.023	0.04
833.322	0.04
833.621	0.03
833.92	0.03
834.219	0.03
834.518	0.03
834.816	0.03
835.115	0.03
835.414	0.03
835.712	0.02
836.011	0.02
836.309	0.02
836.608	0.02
836.906	0.01
837.205	0.02
837.503	0.01
837.801	0.01
838.099	0
838.397	-0.01
838.695	-0.01
838.993	0
839.291	-0
839.589	0
839.887	-0
840.184	-0
840.482	-0.01
840.78	-0.01
841.077	-0.01
841.375	-0.01
841.672	-0.01
841.969	-0.01
842.267	-0.01
842.564	-0
842.861	-0
843.158	-0
843.455	-0.03
843.752	-0.01
844.049	-0.01
844.346	-0.01
844.643	-0.02
844.94	-0.03
845.236	-0
845.533	-0.02
845.83	-0.02
846.126	-0.02
846.423	-0.02
846.719	-0.03
847.015	-0.03
847.312	-0.03
847.608	-0.03
847.904	-0.04
848.2	-0.03
848.496	-0.03
848.792	-0.03
849.088	-0.01
849.384	-0.03
849.68	-0.03
849.975	-0.03
850.271	-0.04
850.567	-0.04
850.862	-0.04
851.158	-0.04
851.453	-0.04
851.748	-0.05
852.044	-0.04
852.339	-0.04
852.634	-0.06
852.929	-0.04
853.224	-0.04
853.519	-0.06
853.814	-0.05
854.109	-0.05
854.404	-0.05
854.699	-0.05
854.994	-0.05
855.288	-0.05
855.583	-0.05
855.877	-0.06
856.172	-0.05
856.466	-0.05
856.76	-0.06
857.055	-0.06
857.349	-0.07
857.643	-0.07
857.937	-0.09
858.231	-0.08
858.525	-0.08
858.819	-0.08
859.113	-0.1
859.407	-0.09
859.701	-0.1
859.994	-0.09
860.288	-0.09
860.581	-0.09
860.875	-0.09
861.168	-0.1
861.462	-0.1
861.755	-0.09
862.048	-0.11
862.341	-0.1
862.634	-0.1
862.928	-0.1
863.221	-0.09
863.513	-0.1
863.806	-0.12
864.099	-0.11
864.392	-0.12
864.685	-0.1
864.977	-0.11
865.27	-0.11
865.562	-0.11
865.855	-0.1
866.147	-0.11
866.44	-0.11
866.732	-0.12
867.024	-0.13
867.316	-0.12
867.608	-0.12
867.9	-0.12
868.192	-0.11
868.484	-0.12
868.776	-0.13
869.068	-0.12
869.359	-0.12
869.651	-0.12
869.943	-0.14
870.234	-0.13
870.526	-0.14
870.817	-0.14
871.108	-0.12
871.4	-0.13
871.691	-0.14
871.982	-0.15
872.273	-0.14
872.564	-0.15
872.855	-0.14
873.146	-0.14
873.437	-0.15
873.728	-0.16
874.019	-0.15
874.309	-0.15
874.6	-0.15
874.89	-0.16
875.181	-0.16
875.471	-0.15
875.762	-0.15
876.052	-0.16
876.342	-0.14
876.632	-0.15
876.922	-0.17
877.213	-0.15
877.503	-0.17
877.792	-0.16
878.082	-0.17
878.372	-0.16
878.662	-0.18
878.952	-0.17
879.241	-0.17
879.531	-0.17
879.82	-0.15
880.11	-0.16
880.399	-0.16
880.688	-0.16
880.978	-0.16
881.267	-0.16
