Data from 12-12-AQDScycling_Absorbance__549__00549.txt Node

Date: Tue Dec 12 13:13:59 EST 2023
User: kyuminlee
Spectrometer: FLMS00943
Trigger mode: 0
Integration Time (sec): 1.000000E-1
Scans to average: 1
Electric dark correction enabled: true
Nonlinearity correction enabled: false
Boxcar width: 0
XAxis mode: Wavelengths
Number of Pixels in Spectrum: 2048
>>>>>Begin Spectral Data<<<<<
179.651	-0
180.037	-0
180.424	-0
180.81	0.02
181.197	0.15
181.583	-0
181.97	-0.14
182.356	-0.39
182.743	0.4
183.129	1.14
183.515	0.69
183.901	-2.27
184.288	0.18
184.674	-0
185.06	-0
185.446	-0
185.832	-0
186.218	2.01
186.604	-0
186.99	-0.2
187.376	-0
187.762	-0
188.148	0.31
188.534	0.08
188.92	0.09
189.305	0.11
189.691	0.09
190.077	0.2
190.463	0.17
190.848	0.14
191.234	0.34
191.619	0.04
192.005	0.15
192.391	0.15
192.776	0.14
193.161	0.13
193.547	0.12
193.932	0.08
194.318	0.02
194.703	0.16
195.088	0.23
195.473	0.19
195.859	0.09
196.244	0.33
196.629	0.12
197.014	0.16
197.399	0.15
197.784	0.17
198.169	0.24
198.554	0.1
198.939	0.24
199.324	0.16
199.709	0.09
200.094	0.03
200.478	0.13
200.863	0.16
201.248	0.16
201.633	0.31
202.017	0.05
202.402	0.18
202.787	0.17
203.171	0.17
203.556	0.12
203.94	0.25
204.325	0.2
204.709	0.14
205.093	0.06
205.478	0.11
205.862	0.33
206.246	0.24
206.631	0.08
207.015	0.1
207.399	0.25
207.783	0.22
208.167	0.21
208.551	0.27
208.935	0.2
209.319	0.05
209.703	0.13
210.087	0.23
210.471	0.31
210.855	0.13
211.239	0.37
211.623	0.24
212.007	0.31
212.39	0.31
212.774	0.08
213.158	0.03
213.541	0.27
213.925	0.22
214.309	0.39
214.692	0.29
215.076	0.48
215.459	0.2
215.842	0.14
216.226	0.19
216.609	0.22
216.993	0.21
217.376	0.54
217.759	0.25
218.142	0.29
218.525	0.55
218.909	0.24
219.292	0.3
219.675	0.38
220.058	0.51
220.441	0.61
220.824	0.51
221.207	0.66
221.59	0.49
221.973	0.48
222.355	0.67
222.738	0.68
223.121	0.65
223.504	0.57
223.886	0.62
224.269	0.61
224.652	0.72
225.034	0.82
225.417	0.71
225.799	0.83
226.182	0.92
226.564	0.79
226.947	0.74
227.329	0.75
227.711	0.87
228.094	1.08
228.476	0.91
228.858	0.71
229.24	0.83
229.623	0.95
230.005	0.82
230.387	0.85
230.769	0.85
231.151	1.07
231.533	0.96
231.915	0.96
232.297	1.16
232.679	1.03
233.061	0.93
233.442	0.93
233.824	1.02
234.206	1.11
234.588	0.94
234.969	1.03
235.351	0.95
235.733	1.01
236.114	1.2
236.496	0.99
236.877	1.09
237.259	1.06
237.64	1.08
238.022	0.99
238.403	0.98
238.784	1.06
239.165	1.1
239.547	1.02
239.928	1.14
240.309	1.04
240.69	1.19
241.071	1.01
241.452	1.07
241.834	1.03
242.215	1.15
242.595	1.09
242.976	1.21
243.357	1.06
243.738	1.07
244.119	1.12
244.5	1.14
244.881	1.2
245.261	1.22
245.642	1.15
246.023	1.24
246.403	1.23
246.784	1.35
247.164	1.36
247.545	1.28
247.925	1.32
248.306	1.28
248.686	1.44
249.067	1.33
249.447	1.31
249.827	1.53
250.207	1.69
250.588	1.43
250.968	1.34
251.348	1.31
251.728	1.47
252.108	1.34
252.488	1.42
252.868	1.39
253.248	1.37
253.628	1.36
254.008	1.4
254.388	1.38
254.768	1.4
255.147	1.38
255.527	1.34
255.907	1.3
256.287	1.29
256.666	1.37
257.046	1.42
257.425	1.45
257.805	1.28
258.184	1.32
258.564	1.47
258.943	1.31
259.323	1.48
259.702	1.31
260.081	1.46
260.461	1.35
260.84	1.53
261.219	1.7
261.598	1.46
261.977	1.42
262.356	1.51
262.736	1.42
263.115	1.49
263.494	1.54
263.873	1.46
264.251	1.35
264.63	1.46
265.009	1.5
265.388	1.38
265.767	1.27
266.145	1.39
266.524	1.48
266.903	1.65
267.281	1.4
267.66	1.53
268.039	1.57
268.417	1.35
268.796	1.45
269.174	1.42
269.552	1.43
269.931	1.48
270.309	1.43
270.687	1.68
271.066	1.73
271.444	1.4
271.822	1.67
272.2	1.36
272.578	1.46
272.956	1.48
273.334	1.34
273.712	1.56
274.09	1.44
274.468	1.32
274.846	1.33
275.224	1.35
275.602	1.45
275.98	1.54
276.357	1.54
276.735	1.56
277.113	1.35
277.49	1.32
277.868	1.33
278.246	1.56
278.623	1.35
279.001	1.31
279.378	1.5
279.756	1.55
280.133	1.39
280.51	1.55
280.888	1.49
281.265	1.48
281.642	1.45
282.019	1.65
282.396	1.6
282.773	1.46
283.151	1.43
283.528	1.48
283.905	1.45
284.282	1.45
284.659	1.53
285.035	1.3
285.412	1.4
285.789	1.49
286.166	1.38
286.543	1.42
286.919	1.53
287.296	1.42
287.673	1.69
288.049	1.65
288.426	1.48
288.802	1.57
289.179	1.48
289.555	1.73
289.932	1.48
290.308	1.42
290.684	1.42
291.061	1.36
291.437	1.63
291.813	1.36
292.189	1.33
292.565	1.35
292.942	1.27
293.318	1.51
293.694	1.53
294.07	1.34
294.446	1.38
294.822	1.47
295.197	1.48
295.573	1.45
295.949	1.56
296.325	1.56
296.701	1.45
297.076	1.48
297.452	1.52
297.828	1.43
298.203	1.54
298.579	1.38
298.954	1.34
299.33	1.4
299.705	1.46
300.081	1.41
300.456	1.39
300.831	1.39
301.206	1.43
301.582	1.37
301.957	1.33
302.332	1.38
302.707	1.27
303.082	1.29
303.457	1.37
303.832	1.28
304.207	1.22
304.582	1.25
304.957	1.25
305.332	1.34
305.707	1.25
306.082	1.25
306.456	1.24
306.831	1.22
307.206	1.22
307.58	1.22
307.955	1.18
308.33	1.19
308.704	1.14
309.079	1.13
309.453	1.24
309.828	1.13
310.202	1.14
310.576	1.11
310.951	1.1
311.325	1.09
311.699	1.12
312.073	1.07
312.447	1.06
312.821	1.06
313.196	1.07
313.57	1
313.944	1.08
314.317	1.04
314.691	1.06
315.065	1.08
315.439	1.04
315.813	1.04
316.187	1.07
316.56	1.06
316.934	1.07
317.308	1.03
317.681	1
318.055	1.05
318.428	1.01
318.802	1.03
319.175	1.04
319.549	0.97
319.922	1.03
320.295	1.03
320.669	1.07
321.042	1.06
321.415	1.08
321.788	1.02
322.162	1.03
322.535	1.01
322.908	1.01
323.281	1.04
323.654	1.09
324.027	1
324.4	1.02
324.773	1.03
325.145	1.03
325.518	1.03
325.891	1.05
326.264	1.07
326.636	1.03
327.009	0.98
327.382	1.06
327.754	1.06
328.127	1.01
328.499	1.1
328.872	1.08
329.244	1.08
329.616	1.06
329.989	1.09
330.361	1.08
330.733	1.07
331.106	1.08
331.478	1.09
331.85	1.11
332.222	1.04
332.594	1.12
332.966	1.12
333.338	1.18
333.71	1.12
334.082	1.22
334.454	1.09
334.826	1.12
335.197	1.14
335.569	1.19
335.941	1.03
336.312	1.13
336.684	1.15
337.056	1.16
337.427	1.23
337.799	1.28
338.17	1.18
338.542	1.1
338.913	1.21
339.284	1.22
339.656	1.13
340.027	1.17
340.398	1.19
340.769	1.15
341.141	1.28
341.512	1.18
341.883	1.21
342.254	1.23
342.625	1.21
342.996	1.17
343.367	1.15
343.738	1.22
344.108	1.18
344.479	1.29
344.85	1.21
345.221	1.27
345.591	1.18
345.962	1.29
346.333	1.2
346.703	1.16
347.074	1.2
347.444	1.16
347.815	1.22
348.185	1.15
348.556	1.19
348.926	1.25
349.296	1.21
349.666	1.33
350.037	1.17
350.407	1.13
350.777	1.22
351.147	1.23
351.517	1.33
351.887	1.32
352.257	1.33
352.627	1.27
352.997	1.26
353.367	1.35
353.737	1.38
354.106	1.36
354.476	1.37
354.846	1.37
355.216	1.33
355.585	1.55
355.955	1.36
356.324	1.37
356.694	1.54
357.063	1.35
357.433	1.42
357.802	1.39
358.171	1.4
358.541	1.41
358.91	1.48
359.279	1.49
359.648	1.44
360.017	1.6
360.387	1.44
360.756	1.43
361.125	1.58
361.494	1.52
361.863	1.5
362.231	1.5
362.6	1.52
362.969	1.55
363.338	1.37
363.707	1.45
364.075	1.62
364.444	1.39
364.813	1.42
365.181	1.5
365.55	1.44
365.918	1.65
366.287	1.59
366.655	1.54
367.024	1.61
367.392	1.52
367.76	1.53
368.128	1.51
368.497	1.49
368.865	1.51
369.233	1.52
369.601	1.48
369.969	1.5
370.337	1.65
370.705	1.67
371.073	1.61
371.441	1.52
371.809	1.61
372.177	1.51
372.544	1.58
372.912	1.59
373.28	1.42
373.647	1.55
374.015	1.57
374.383	1.74
374.75	1.65
375.118	1.61
375.485	1.57
375.853	1.73
376.22	1.56
376.587	1.59
376.955	1.74
377.322	1.56
377.689	1.55
378.056	1.48
378.423	1.57
378.79	1.54
379.157	1.43
379.524	1.52
379.891	1.54
380.258	1.69
380.625	1.57
380.992	1.53
381.359	1.77
381.726	1.85
382.092	1.48
382.459	1.6
382.826	1.48
383.192	1.5
383.559	1.64
383.925	1.62
384.292	1.49
384.658	1.92
385.025	1.64
385.391	1.71
385.757	1.65
386.123	1.76
386.49	1.47
386.856	1.58
387.222	1.76
387.588	1.55
387.954	1.78
388.32	1.55
388.686	1.67
389.052	1.55
389.418	1.68
389.784	1.45
390.15	1.81
390.515	1.42
390.881	1.69
391.247	1.5
391.613	1.65
391.978	1.5
392.344	1.58
392.709	1.62
393.075	1.5
393.44	1.6
393.806	1.54
394.171	1.46
394.536	1.58
394.902	1.57
395.267	1.44
395.632	1.52
395.997	1.55
396.362	1.45
396.727	1.54
397.092	1.54
397.457	1.52
397.822	1.58
398.187	1.63
398.552	1.53
398.917	1.71
399.282	1.4
399.646	1.46
400.011	1.72
400.376	1.47
400.74	1.58
401.105	1.5
401.47	1.72
401.834	1.65
402.199	1.54
402.563	1.56
402.927	1.47
403.292	1.57
403.656	1.62
404.02	1.54
404.384	1.93
404.749	1.55
405.113	1.67
405.477	1.64
405.841	1.61
406.205	1.58
406.569	1.49
406.933	1.54
407.296	1.6
407.66	1.51
408.024	1.56
408.388	1.64
408.752	1.57
409.115	1.76
409.479	1.6
409.842	1.68
410.206	1.43
410.569	1.58
410.933	1.43
411.296	1.49
411.66	1.8
412.023	1.49
412.386	1.56
412.749	1.44
413.113	1.46
413.476	1.42
413.839	1.48
414.202	1.58
414.565	1.51
414.928	1.48
415.291	1.38
415.654	1.48
416.017	1.63
416.38	1.51
416.742	1.42
417.105	1.63
417.468	1.44
417.83	1.6
418.193	1.57
418.556	1.42
418.918	1.45
419.281	1.52
419.643	1.65
420.005	1.54
420.368	1.49
420.73	1.44
421.092	1.45
421.455	1.51
421.817	1.35
422.179	1.41
422.541	1.56
422.903	1.62
423.265	1.61
423.627	1.5
423.989	1.47
424.351	1.41
424.713	1.48
425.075	1.43
425.436	1.5
425.798	1.44
426.16	1.49
426.521	1.56
426.883	1.48
427.245	1.55
427.606	1.45
427.967	1.39
428.329	1.45
428.69	1.53
429.052	1.4
429.413	1.48
429.774	1.48
430.135	1.54
430.497	1.54
430.858	1.45
431.219	1.63
431.58	1.44
431.941	1.48
432.302	1.41
432.663	1.43
433.024	1.62
433.384	1.48
433.745	1.43
434.106	1.5
434.467	1.45
434.827	1.44
435.188	1.55
435.548	1.57
435.909	1.58
436.269	1.52
436.63	1.44
436.99	1.41
437.351	1.34
437.711	1.37
438.071	1.32
438.431	1.31
438.792	1.49
439.152	1.42
439.512	1.4
439.872	1.37
440.232	1.41
440.592	1.36
440.952	1.34
441.312	1.35
441.671	1.39
442.031	1.41
442.391	1.4
442.751	1.39
443.11	1.36
443.47	1.27
443.83	1.32
444.189	1.33
444.549	1.32
444.908	1.26
445.267	1.31
445.627	1.31
445.986	1.29
446.345	1.21
446.705	1.25
447.064	1.27
447.423	1.26
447.782	1.24
448.141	1.22
448.5	1.21
448.859	1.23
449.218	1.22
449.577	1.25
449.936	1.24
450.295	1.21
450.653	1.17
451.012	1.19
451.371	1.19
451.729	1.16
452.088	1.18
452.447	1.18
452.805	1.17
453.163	1.19
453.522	1.15
453.88	1.1
454.239	1.15
454.597	1.1
454.955	1.08
455.313	1.09
455.671	1.09
456.029	1.07
456.388	1.05
456.746	1.06
457.104	1.03
457.461	1
457.819	1.02
458.177	1
458.535	0.98
458.893	0.98
459.25	0.96
459.608	0.96
459.966	0.93
460.323	0.93
460.681	0.89
461.038	0.89
461.396	0.88
461.753	0.87
462.111	0.88
462.468	0.88
462.825	0.85
463.182	0.82
463.54	0.82
463.897	0.81
464.254	0.82
464.611	0.79
464.968	0.79
465.325	0.77
465.682	0.75
466.039	0.75
466.395	0.74
466.752	0.73
467.109	0.72
467.466	0.7
467.822	0.7
468.179	0.68
468.535	0.67
468.892	0.67
469.248	0.65
469.605	0.64
469.961	0.63
470.318	0.64
470.674	0.62
471.03	0.62
471.386	0.6
471.743	0.6
472.099	0.59
472.455	0.58
472.811	0.58
473.167	0.55
473.523	0.55
473.879	0.54
474.235	0.53
474.59	0.52
474.946	0.5
475.302	0.51
475.657	0.49
476.013	0.48
476.369	0.47
476.724	0.48
477.08	0.46
477.435	0.46
477.791	0.45
478.146	0.44
478.501	0.43
478.857	0.44
479.212	0.42
479.567	0.41
479.922	0.4
480.277	0.41
480.632	0.39
480.987	0.39
481.342	0.38
481.697	0.37
482.052	0.36
482.407	0.36
482.762	0.35
483.116	0.35
483.471	0.34
483.826	0.33
484.18	0.33
484.535	0.33
484.89	0.31
485.244	0.32
485.598	0.31
485.953	0.31
486.307	0.3
486.661	0.3
487.016	0.29
487.37	0.29
487.724	0.29
488.078	0.28
488.432	0.27
488.786	0.28
489.14	0.27
489.494	0.25
489.848	0.26
490.202	0.25
490.556	0.25
490.91	0.25
491.263	0.25
491.617	0.24
491.971	0.23
492.324	0.23
492.678	0.24
493.031	0.23
493.385	0.23
493.738	0.22
494.091	0.22
494.445	0.22
494.798	0.22
495.151	0.22
495.504	0.21
495.857	0.21
496.21	0.21
496.564	0.19
496.916	0.2
497.269	0.19
497.622	0.2
497.975	0.19
498.328	0.18
498.681	0.19
499.033	0.18
499.386	0.19
499.739	0.18
500.091	0.18
500.444	0.17
500.796	0.18
501.149	0.17
501.501	0.17
501.854	0.17
502.206	0.17
502.558	0.17
502.91	0.16
503.263	0.17
503.615	0.16
503.967	0.16
504.319	0.16
504.671	0.16
505.023	0.16
505.375	0.15
505.726	0.16
506.078	0.15
506.43	0.15
506.782	0.15
507.133	0.15
507.485	0.15
507.837	0.16
508.188	0.16
508.54	0.15
508.891	0.16
509.243	0.14
509.594	0.16
509.945	0.15
510.296	0.14
510.648	0.14
510.999	0.14
511.35	0.14
511.701	0.15
512.052	0.15
512.403	0.15
512.754	0.14
513.105	0.14
513.456	0.14
513.807	0.14
514.157	0.14
514.508	0.14
514.859	0.13
515.209	0.13
515.56	0.13
515.91	0.13
516.261	0.14
516.611	0.13
516.962	0.14
517.312	0.13
517.662	0.14
518.013	0.14
518.363	0.14
518.713	0.13
519.063	0.14
519.413	0.13
519.763	0.14
520.113	0.13
520.463	0.14
520.813	0.14
521.163	0.14
521.512	0.14
521.862	0.13
522.212	0.14
522.562	0.13
522.911	0.13
523.261	0.13
523.61	0.14
523.96	0.13
524.309	0.13
524.658	0.13
525.008	0.13
525.357	0.13
525.706	0.13
526.056	0.13
526.405	0.13
526.754	0.13
527.103	0.13
527.452	0.13
527.801	0.13
528.15	0.13
528.499	0.13
528.847	0.14
529.196	0.14
529.545	0.14
529.893	0.13
530.242	0.13
530.591	0.15
530.939	0.14
531.288	0.14
531.636	0.14
531.985	0.14
532.333	0.14
532.681	0.14
533.029	0.14
533.378	0.14
533.726	0.14
534.074	0.14
534.422	0.13
534.77	0.14
535.118	0.14
535.466	0.14
535.814	0.13
536.162	0.14
536.509	0.14
536.857	0.13
537.205	0.14
537.552	0.14
537.9	0.14
538.248	0.13
538.595	0.14
538.943	0.14
539.29	0.13
539.637	0.14
539.985	0.14
540.332	0.13
540.679	0.13
541.026	0.13
541.373	0.14
541.721	0.14
542.068	0.13
542.415	0.13
542.762	0.12
543.108	0.12
543.455	0.12
543.802	0.13
544.149	0.12
544.496	0.13
544.842	0.12
545.189	0.12
545.535	0.12
545.882	0.12
546.228	0.12
546.575	0.12
546.921	0.12
547.267	0.12
547.614	0.12
547.96	0.12
548.306	0.12
548.652	0.12
548.998	0.13
549.344	0.13
549.69	0.13
550.036	0.12
550.382	0.12
550.728	0.12
551.074	0.14
551.42	0.13
551.765	0.14
552.111	0.13
552.457	0.13
552.802	0.13
553.148	0.13
553.493	0.12
553.839	0.13
554.184	0.13
554.529	0.12
554.875	0.14
555.22	0.13
555.565	0.13
555.91	0.14
556.255	0.13
556.6	0.13
556.945	0.12
557.29	0.13
557.635	0.13
557.98	0.13
558.325	0.14
558.67	0.13
559.014	0.13
559.359	0.13
559.704	0.12
560.048	0.12
560.393	0.13
560.737	0.12
561.082	0.13
561.426	0.12
561.77	0.13
562.115	0.13
562.459	0.13
562.803	0.13
563.147	0.13
563.491	0.13
563.835	0.13
564.179	0.13
564.523	0.13
564.867	0.13
565.211	0.13
565.555	0.14
565.899	0.14
566.242	0.13
566.586	0.12
566.93	0.12
567.273	0.13
567.617	0.13
567.96	0.13
568.304	0.14
568.647	0.13
568.99	0.14
569.334	0.14
569.677	0.13
570.02	0.13
570.363	0.14
570.706	0.14
571.049	0.14
571.392	0.14
571.735	0.13
572.078	0.14
572.421	0.14
572.764	0.14
573.106	0.14
573.449	0.13
573.792	0.13
574.134	0.14
574.477	0.14
574.819	0.13
575.162	0.12
575.504	0.13
575.847	0.13
576.189	0.13
576.531	0.13
576.873	0.13
577.215	0.13
577.558	0.13
577.9	0.13
578.242	0.14
578.584	0.13
578.926	0.13
579.267	0.13
579.609	0.14
579.951	0.13
580.293	0.14
580.634	0.13
580.976	0.13
581.318	0.12
581.659	0.13
582.001	0.13
582.342	0.13
582.683	0.13
583.025	0.12
583.366	0.13
583.707	0.13
584.049	0.12
584.39	0.12
584.731	0.12
585.072	0.12
585.413	0.13
585.754	0.12
586.095	0.13
586.435	0.13
586.776	0.13
587.117	0.13
587.458	0.13
587.798	0.13
588.139	0.12
588.48	0.12
588.82	0.12
589.161	0.12
589.501	0.12
589.841	0.13
590.182	0.12
590.522	0.12
590.862	0.13
591.202	0.13
591.542	0.12
591.882	0.12
592.222	0.13
592.562	0.13
592.902	0.12
593.242	0.12
593.582	0.14
593.922	0.13
594.261	0.12
594.601	0.12
594.941	0.13
595.28	0.13
595.62	0.12
595.959	0.12
596.299	0.12
596.638	0.13
596.977	0.12
597.317	0.13
597.656	0.13
597.995	0.13
598.334	0.14
598.673	0.13
599.012	0.12
599.351	0.13
599.69	0.12
600.029	0.13
600.368	0.13
600.707	0.13
601.046	0.13
601.384	0.13
601.723	0.13
602.061	0.12
602.4	0.13
602.738	0.13
603.077	0.13
603.415	0.13
603.754	0.13
604.092	0.13
604.43	0.12
604.768	0.13
605.107	0.13
605.445	0.12
605.783	0.12
606.121	0.12
606.459	0.13
606.796	0.13
607.134	0.12
607.472	0.12
607.81	0.13
608.148	0.12
608.485	0.13
608.823	0.12
609.16	0.12
609.498	0.12
609.835	0.12
610.173	0.12
610.51	0.12
610.847	0.12
611.185	0.13
611.522	0.12
611.859	0.13
612.196	0.13
612.533	0.13
612.87	0.13
613.207	0.13
613.544	0.13
613.881	0.14
614.217	0.13
614.554	0.13
614.891	0.13
615.228	0.13
615.564	0.13
615.901	0.13
616.237	0.13
616.574	0.13
616.91	0.14
617.246	0.14
617.583	0.13
617.919	0.13
618.255	0.14
618.591	0.13
618.927	0.13
619.263	0.14
619.599	0.14
619.935	0.13
620.271	0.13
620.607	0.14
620.943	0.13
621.279	0.13
621.614	0.13
621.95	0.14
622.286	0.13
622.621	0.12
622.957	0.13
623.292	0.12
623.627	0.12
623.963	0.13
624.298	0.13
624.633	0.12
624.968	0.11
625.304	0.12
625.639	0.12
625.974	0.13
626.309	0.12
626.644	0.12
626.979	0.13
627.313	0.12
627.648	0.12
627.983	0.13
628.318	0.12
628.652	0.11
628.987	0.11
629.321	0.12
629.656	0.11
629.99	0.11
630.325	0.11
630.659	0.11
630.993	0.11
631.327	0.11
631.662	0.1
631.996	0.11
632.33	0.11
632.664	0.11
632.998	0.11
633.332	0.11
633.666	0.11
633.999	0.11
634.333	0.11
634.667	0.11
635.001	0.11
635.334	0.11
635.668	0.11
636.001	0.11
636.335	0.11
636.668	0.11
637.001	0.1
637.335	0.11
637.668	0.1
638.001	0.1
638.334	0.11
638.668	0.1
639.001	0.11
639.334	0.1
639.667	0.11
639.999	0.11
640.332	0.11
640.665	0.11
640.998	0.11
641.331	0.11
641.663	0.1
641.996	0.11
642.328	0.11
642.661	0.11
642.993	0.1
643.326	0.11
643.658	0.1
643.99	0.1
644.323	0.1
644.655	0.1
644.987	0.11
645.319	0.11
645.651	0.11
645.983	0.1
646.315	0.09
646.647	0.1
646.979	0.11
647.31	0.11
647.642	0.11
647.974	0.1
648.305	0.11
648.637	0.11
648.968	0.11
649.3	0.11
649.631	0.11
649.963	0.11
650.294	0.11
650.625	0.1
650.957	0.11
651.288	0.11
651.619	0.11
651.95	0.11
652.281	0.11
652.612	0.1
652.943	0.11
653.274	0.12
653.604	0.12
653.935	0.11
654.266	0.11
654.596	0.1
654.927	0.11
655.258	0.12
655.588	0.12
655.918	0.11
656.249	0.09
656.579	0.1
656.909	0.1
657.24	0.1
657.57	0.11
657.9	0.11
658.23	0.1
658.56	0.11
658.89	0.11
659.22	0.1
659.55	0.11
659.88	0.11
660.209	0.11
660.539	0.11
660.869	0.11
661.198	0.11
661.528	0.11
661.857	0.1
662.187	0.1
662.516	0.1
662.846	0.11
663.175	0.1
663.504	0.11
663.833	0.1
664.163	0.1
664.492	0.1
664.821	0.1
665.15	0.1
665.479	0.11
665.807	0.1
666.136	0.11
666.465	0.11
666.794	0.11
667.122	0.11
667.451	0.11
667.78	0.11
668.108	0.1
668.437	0.1
668.765	0.1
669.093	0.1
669.422	0.1
669.75	0.1
670.078	0.1
670.406	0.11
670.734	0.1
671.062	0.1
671.39	0.09
671.718	0.1
672.046	0.1
672.374	0.1
672.702	0.1
673.029	0.09
673.357	0.1
673.685	0.1
674.012	0.1
674.34	0.1
674.667	0.1
674.995	0.1
675.322	0.1
675.649	0.09
675.977	0.1
676.304	0.1
676.631	0.1
676.958	0.1
677.285	0.09
677.612	0.09
677.939	0.1
678.266	0.1
678.593	0.1
678.92	0.09
679.246	0.09
679.573	0.09
679.9	0.09
680.226	0.1
680.553	0.09
680.879	0.1
681.206	0.1
681.532	0.1
681.858	0.1
682.184	0.09
682.511	0.09
682.837	0.09
683.163	0.1
683.489	0.1
683.815	0.1
684.141	0.1
684.467	0.09
684.793	0.09
685.118	0.09
685.444	0.09
685.77	0.09
686.095	0.09
686.421	0.09
686.746	0.09
687.072	0.09
687.397	0.09
687.723	0.1
688.048	0.1
688.373	0.09
688.698	0.09
689.023	0.09
689.349	0.1
689.674	0.1
689.999	0.09
690.323	0.09
690.648	0.09
690.973	0.09
691.298	0.09
691.623	0.09
691.947	0.1
692.272	0.09
692.596	0.09
692.921	0.1
693.245	0.09
693.57	0.09
693.894	0.09
694.218	0.1
694.543	0.09
694.867	0.09
695.191	0.08
695.515	0.09
695.839	0.09
696.163	0.09
696.487	0.09
696.811	0.09
697.135	0.09
697.458	0.09
697.782	0.09
698.106	0.09
698.429	0.09
698.753	0.09
699.076	0.08
699.4	0.08
699.723	0.08
700.046	0.08
700.37	0.09
700.693	0.09
701.016	0.08
701.339	0.09
701.662	0.09
701.985	0.1
702.308	0.08
702.631	0.09
702.954	0.09
703.277	0.09
703.599	0.08
703.922	0.08
704.245	0.08
704.567	0.08
704.89	0.08
705.212	0.09
705.535	0.08
705.857	0.08
706.179	0.07
706.502	0.08
706.824	0.07
707.146	0.08
707.468	0.09
707.79	0.08
708.112	0.08
708.434	0.08
708.756	0.08
709.078	0.08
709.399	0.08
709.721	0.08
710.043	0.08
710.364	0.09
710.686	0.08
711.007	0.08
711.329	0.09
711.65	0.08
711.972	0.08
712.293	0.08
712.614	0.09
712.935	0.08
713.256	0.08
713.577	0.09
713.898	0.08
714.219	0.09
714.54	0.08
714.861	0.07
715.182	0.08
715.503	0.08
715.823	0.07
716.144	0.07
716.464	0.06
716.785	0.07
717.105	0.07
717.426	0.08
717.746	0.07
718.066	0.07
718.387	0.07
718.707	0.07
719.027	0.07
719.347	0.06
719.667	0.07
719.987	0.07
720.307	0.07
720.627	0.07
720.947	0.07
721.266	0.07
721.586	0.07
721.906	0.08
722.225	0.06
722.545	0.07
722.864	0.07
723.184	0.07
723.503	0.07
723.823	0.08
724.142	0.06
724.461	0.07
724.78	0.06
725.099	0.07
725.418	0.07
725.737	0.07
726.056	0.07
726.375	0.06
726.694	0.06
727.013	0.07
727.331	0.06
727.65	0.06
727.969	0.07
728.287	0.07
728.606	0.07
728.924	0.06
729.242	0.07
729.561	0.07
729.879	0.07
730.197	0.07
730.515	0.06
730.834	0.07
731.152	0.07
731.47	0.07
731.788	0.07
732.105	0.06
732.423	0.07
732.741	0.08
733.059	0.06
733.376	0.08
733.694	0.07
734.012	0.07
734.329	0.07
734.647	0.07
734.964	0.06
735.281	0.07
735.599	0.08
735.916	0.08
736.233	0.06
736.55	0.07
736.867	0.07
737.184	0.08
737.501	0.06
737.818	0.06
738.135	0.07
738.452	0.06
738.768	0.07
739.085	0.07
739.402	0.06
739.718	0.07
740.035	0.06
740.351	0.07
740.668	0.07
740.984	0.06
741.3	0.07
741.617	0.07
741.933	0.07
742.249	0.07
742.565	0.07
742.881	0.07
743.197	0.07
743.513	0.06
743.829	0.06
744.144	0.06
744.46	0.06
744.776	0.06
745.091	0.06
745.407	0.06
745.722	0.05
746.038	0.06
746.353	0.05
746.669	0.06
746.984	0.05
747.299	0.05
747.614	0.06
747.93	0.05
748.245	0.05
748.56	0.05
748.875	0.05
749.189	0.05
749.504	0.06
749.819	0.06
750.134	0.06
750.448	0.05
750.763	0.05
751.078	0.05
751.392	0.05
751.707	0.07
752.021	0.07
752.335	0.07
752.65	0.06
752.964	0.06
753.278	0.06
753.592	0.06
753.906	0.06
754.22	0.07
754.534	0.06
754.848	0.06
755.162	0.05
755.476	0.06
755.789	0.06
756.103	0.05
756.417	0.07
756.73	0.06
757.044	0.07
757.357	0.06
757.671	0.07
757.984	0.07
758.297	0.07
758.61	0.07
758.924	0.06
759.237	0.06
759.55	0.06
759.863	0.06
760.176	0.06
760.488	0.05
760.801	0.06
761.114	0.06
761.427	0.06
761.739	0.06
762.052	0.05
762.365	0.06
762.677	0.06
762.99	0.05
763.302	0.06
763.614	0.06
763.926	0.06
764.239	0.05
764.551	0.05
764.863	0.06
765.175	0.06
765.487	0.06
765.799	0.05
766.111	0.05
766.423	0.06
766.734	0.06
767.046	0.05
767.358	0.06
767.669	0.06
767.981	0.07
768.292	0.05
768.604	0.06
768.915	0.06
769.226	0.05
769.537	0.05
769.849	0.06
770.16	0.05
770.471	0.05
770.782	0.05
771.093	0.06
771.404	0.04
771.715	0.04
772.025	0.05
772.336	0.05
772.647	0.05
772.957	0.05
773.268	0.05
773.578	0.05
773.889	0.05
774.199	0.05
774.51	0.05
774.82	0.05
775.13	0.05
775.44	0.05
775.75	0.06
776.06	0.06
776.37	0.05
776.68	0.06
776.99	0.05
777.3	0.05
777.61	0.06
777.92	0.05
778.229	0.05
778.539	0.05
778.848	0.05
779.158	0.05
779.467	0.05
779.777	0.05
780.086	0.05
780.395	0.05
780.704	0.05
781.013	0.04
781.323	0.04
781.632	0.05
781.941	0.05
782.249	0.05
782.558	0.05
782.867	0.05
783.176	0.04
783.485	0.05
783.793	0.05
784.102	0.06
784.41	0.05
784.719	0.05
785.027	0.04
785.335	0.05
785.644	0.05
785.952	0.05
786.26	0.05
786.568	0.04
786.876	0.04
787.184	0.04
787.492	0.05
787.8	0.05
788.108	0.05
788.416	0.04
788.723	0.05
789.031	0.04
789.338	0.05
789.646	0.04
789.953	0.05
790.261	0.05
790.568	0.06
790.876	0.05
791.183	0.05
791.49	0.04
791.797	0.05
792.104	0.04
792.411	0.05
792.718	0.05
793.025	0.06
793.332	0.05
793.639	0.06
793.945	0.06
794.252	0.06
794.559	0.05
794.865	0.06
795.172	0.05
795.478	0.06
795.784	0.06
796.091	0.06
796.397	0.06
796.703	0.06
797.009	0.06
797.315	0.06
797.622	0.06
797.927	0.06
798.233	0.06
798.539	0.07
798.845	0.06
799.151	0.06
799.456	0.06
799.762	0.05
800.068	0.06
800.373	0.07
800.679	0.06
800.984	0.06
801.289	0.05
801.595	0.06
801.9	0.06
802.205	0.06
802.51	0.06
802.815	0.06
803.12	0.06
803.425	0.05
803.73	0.05
804.035	0.06
804.339	0.06
804.644	0.05
804.949	0.06
805.253	0.05
805.558	0.05
805.862	0.05
806.167	0.06
806.471	0.05
806.775	0.05
807.08	0.05
807.384	0.05
807.688	0.05
807.992	0.05
808.296	0.05
808.6	0.05
808.904	0.06
809.207	0.06
809.511	0.06
809.815	0.06
810.119	0.06
810.422	0.06
810.726	0.07
811.029	0.07
811.332	0.07
811.636	0.06
811.939	0.06
812.242	0.06
812.546	0.07
812.849	0.07
813.152	0.07
813.455	0.06
813.758	0.07
814.06	0.07
814.363	0.07
814.666	0.07
814.969	0.07
815.271	0.08
815.574	0.06
815.877	0.06
816.179	0.06
816.481	0.07
816.784	0.06
817.086	0.06
817.388	0.05
817.69	0.05
817.993	0.05
818.295	0.05
818.597	0.06
818.899	0.04
819.2	0.05
819.502	0.05
819.804	0.04
820.106	0.05
820.407	0.04
820.709	0.05
821.01	0.05
821.312	0.05
821.613	0.05
821.915	0.04
822.216	0.04
822.517	0.03
822.818	0.04
823.119	0.04
823.42	0.04
823.721	0.04
824.022	0.03
824.323	0.04
824.624	0.03
824.925	0.04
825.226	0.05
825.526	0.03
825.827	0.04
826.127	0.04
826.428	0.04
826.728	0.03
827.028	0.03
827.329	0.03
827.629	0.03
827.929	0.04
828.229	0.04
828.529	0.04
828.829	0.04
829.129	0.03
829.429	0.03
829.729	0.04
830.029	0.03
830.328	0.04
830.628	0.03
830.927	0.03
831.227	0.03
831.526	0.04
831.826	0.03
832.125	0.03
832.424	0.03
832.724	0.03
833.023	0.04
833.322	0.04
833.621	0.03
833.92	0.03
834.219	0.02
834.518	0.03
834.816	0.02
835.115	0.02
835.414	0.03
835.712	0.02
836.011	0.02
836.309	0.02
836.608	0.02
836.906	0.01
837.205	0
837.503	0.01
837.801	0.01
838.099	0.01
838.397	-0
838.695	-0
838.993	-0
839.291	-0
839.589	-0.01
839.887	-0.01
840.184	-0.01
840.482	-0.01
840.78	-0.01
841.077	-0.01
841.375	-0.01
841.672	-0
841.969	-0.01
842.267	-0
842.564	-0
842.861	-0.01
843.158	-0.01
843.455	-0.03
843.752	-0.02
844.049	-0.02
844.346	-0.02
844.643	-0.03
844.94	-0.03
845.236	-0.02
845.533	-0.02
845.83	-0.02
846.126	-0.03
846.423	-0.03
846.719	-0.04
847.015	-0.03
847.312	-0.03
847.608	-0.03
847.904	-0.04
848.2	-0.03
848.496	-0.04
848.792	-0.03
849.088	-0.03
849.384	-0.04
849.68	-0.05
849.975	-0.04
850.271	-0.04
850.567	-0.04
850.862	-0.05
851.158	-0.05
851.453	-0.04
851.748	-0.06
852.044	-0.05
852.339	-0.04
852.634	-0.06
852.929	-0.04
853.224	-0.06
853.519	-0.05
853.814	-0.05
854.109	-0.06
854.404	-0.05
854.699	-0.06
854.994	-0.06
855.288	-0.06
855.583	-0.05
855.877	-0.06
856.172	-0.06
856.466	-0.07
856.76	-0.06
857.055	-0.07
857.349	-0.08
857.643	-0.08
857.937	-0.09
858.231	-0.09
858.525	-0.1
858.819	-0.1
859.113	-0.11
859.407	-0.11
859.701	-0.11
859.994	-0.11
860.288	-0.09
860.581	-0.1
860.875	-0.11
861.168	-0.11
861.462	-0.11
861.755	-0.11
862.048	-0.11
862.341	-0.09
862.634	-0.11
862.928	-0.1
863.221	-0.1
863.513	-0.12
863.806	-0.11
864.099	-0.12
864.392	-0.12
864.685	-0.1
864.977	-0.1
865.27	-0.12
865.562	-0.12
865.855	-0.11
866.147	-0.12
866.44	-0.11
866.732	-0.12
867.024	-0.12
867.316	-0.12
867.608	-0.12
867.9	-0.12
868.192	-0.11
868.484	-0.13
868.776	-0.13
869.068	-0.14
869.359	-0.12
869.651	-0.13
869.943	-0.14
870.234	-0.14
870.526	-0.14
870.817	-0.14
871.108	-0.13
871.4	-0.14
871.691	-0.14
871.982	-0.16
872.273	-0.16
872.564	-0.15
872.855	-0.16
873.146	-0.16
873.437	-0.15
873.728	-0.18
874.019	-0.16
874.309	-0.17
874.6	-0.17
874.89	-0.16
875.181	-0.17
875.471	-0.17
875.762	-0.16
876.052	-0.17
876.342	-0.15
876.632	-0.16
876.922	-0.17
877.213	-0.16
877.503	-0.17
877.792	-0.16
878.082	-0.16
878.372	-0.16
878.662	-0.18
878.952	-0.18
879.241	-0.16
879.531	-0.17
879.82	-0.17
880.11	-0.16
880.399	-0.17
880.688	-0.14
880.978	-0.14
881.267	-0.14
