Data from 12-12-AQDScycling_Absorbance__277__00277.txt Node

Date: Tue Dec 12 12:07:02 EST 2023
User: kyuminlee
Spectrometer: FLMS00943
Trigger mode: 0
Integration Time (sec): 1.000000E-1
Scans to average: 1
Electric dark correction enabled: true
Nonlinearity correction enabled: false
Boxcar width: 0
XAxis mode: Wavelengths
Number of Pixels in Spectrum: 2048
>>>>>Begin Spectral Data<<<<<
179.651	-0
180.037	-0
180.424	-0
180.81	-0.42
181.197	0.32
181.583	-0
181.97	-0.15
182.356	-0
182.743	-0
183.129	0.02
183.515	0.41
183.901	-0
184.288	0.31
184.674	0.24
185.06	-0
185.446	-0
185.832	-1.33
186.218	0.16
186.604	-0
186.99	-0
187.376	0.82
187.762	-0
188.148	0.3
188.534	-0.24
188.92	0.18
189.305	0.05
189.691	0.32
190.077	0.1
190.463	0.06
190.848	0.28
191.234	0.13
191.619	0.17
192.005	0.22
192.391	0.09
192.776	0.06
193.161	0.1
193.547	0.1
193.932	0.27
194.318	0.09
194.703	0.13
195.088	0.29
195.473	0.21
195.859	0.23
196.244	0.35
196.629	0.11
197.014	0.12
197.399	0.16
197.784	0.01
198.169	0.11
198.554	0.25
198.939	0.15
199.324	0.1
199.709	0.21
200.094	0.09
200.478	0.17
200.863	0.08
201.248	0.14
201.633	0.12
202.017	0.16
202.402	0.24
202.787	0.15
203.171	0.16
203.556	0.12
203.94	0.19
204.325	0.26
204.709	0.32
205.093	-0.01
205.478	0.17
205.862	0.22
206.246	0.15
206.631	0.2
207.015	0.08
207.399	0.2
207.783	0.21
208.167	0.07
208.551	0.19
208.935	0.17
209.319	0.12
209.703	0.17
210.087	0.25
210.471	0.06
210.855	0.23
211.239	0.28
211.623	0.34
212.007	0.25
212.39	0.4
212.774	0.29
213.158	0.09
213.541	0.27
213.925	0.36
214.309	0.2
214.692	0.31
215.076	0.17
215.459	0.42
215.842	0.2
216.226	0.28
216.609	0.27
216.993	0.32
217.376	0.59
217.759	0.31
218.142	0.29
218.525	0.78
218.909	0.42
219.292	0.36
219.675	0.34
220.058	0.5
220.441	0.38
220.824	0.49
221.207	0.62
221.59	0.52
221.973	0.49
222.355	0.59
222.738	0.7
223.121	0.65
223.504	0.58
223.886	0.66
224.269	0.76
224.652	0.7
225.034	0.84
225.417	0.71
225.799	0.74
226.182	0.83
226.564	0.96
226.947	0.83
227.329	0.74
227.711	1.04
228.094	1.03
228.476	0.88
228.858	0.78
229.24	0.85
229.623	0.87
230.005	0.75
230.387	0.73
230.769	0.93
231.151	0.89
231.533	1.01
231.915	0.85
232.297	0.95
232.679	1.01
233.061	1.02
233.442	1.06
233.824	1.01
234.206	1.11
234.588	1.06
234.969	1.15
235.351	1.16
235.733	1.09
236.114	1.06
236.496	1.17
236.877	1.08
237.259	1.13
237.64	1.02
238.022	1.15
238.403	1.04
238.784	1.16
239.165	0.99
239.547	1.19
239.928	1
240.309	1.12
240.69	1.14
241.071	1.19
241.452	1.26
241.834	1.07
242.215	1.08
242.595	1.05
242.976	1.22
243.357	1.08
243.738	1.12
244.119	1.29
244.5	1.14
244.881	1.21
245.261	1.37
245.642	1.12
246.023	1.26
246.403	1.12
246.784	1.26
247.164	1.32
247.545	1.21
247.925	1.32
248.306	1.22
248.686	1.43
249.067	1.32
249.447	1.46
249.827	1.48
250.207	1.45
250.588	1.37
250.968	1.63
251.348	1.36
251.728	1.49
252.108	1.48
252.488	1.48
252.868	1.36
253.248	1.38
253.628	1.51
254.008	1.4
254.388	1.33
254.768	1.28
255.147	1.39
255.527	1.43
255.907	1.28
256.287	1.33
256.666	1.53
257.046	1.45
257.425	1.59
257.805	1.4
258.184	1.29
258.564	1.34
258.943	1.42
259.323	1.65
259.702	1.52
260.081	1.54
260.461	1.49
260.84	1.46
261.219	1.76
261.598	1.65
261.977	1.49
262.356	1.67
262.736	1.58
263.115	1.63
263.494	1.43
263.873	1.5
264.251	1.52
264.63	1.51
265.009	1.49
265.388	1.37
265.767	1.31
266.145	1.35
266.524	1.43
266.903	1.47
267.281	1.43
267.66	1.44
268.039	1.53
268.417	1.48
268.796	1.39
269.174	1.49
269.552	1.37
269.931	1.45
270.309	1.46
270.687	1.55
271.066	1.83
271.444	1.28
271.822	1.52
272.2	1.41
272.578	1.47
272.956	1.45
273.334	1.55
273.712	1.5
274.09	1.39
274.468	1.42
274.846	1.34
275.224	1.52
275.602	1.37
275.98	1.59
276.357	1.5
276.735	1.49
277.113	1.6
277.49	1.39
277.868	1.31
278.246	1.71
278.623	1.31
279.001	1.31
279.378	1.41
279.756	1.42
280.133	1.74
280.51	1.58
280.888	1.53
281.265	1.33
281.642	1.56
282.019	1.72
282.396	1.68
282.773	1.39
283.151	1.61
283.528	1.51
283.905	1.43
284.282	1.47
284.659	1.34
285.035	1.31
285.412	1.28
285.789	1.38
286.166	1.54
286.543	1.56
286.919	1.56
287.296	1.48
287.673	1.84
288.049	1.47
288.426	1.6
288.802	1.55
289.179	1.63
289.555	1.71
289.932	1.47
290.308	1.4
290.684	1.34
291.061	1.34
291.437	1.56
291.813	1.42
292.189	1.29
292.565	1.52
292.942	1.42
293.318	1.38
293.694	1.38
294.07	1.48
294.446	1.42
294.822	1.7
295.197	1.46
295.573	1.46
295.949	1.48
296.325	1.54
296.701	1.57
297.076	1.69
297.452	1.57
297.828	1.53
298.203	1.55
298.579	1.47
298.954	1.48
299.33	1.4
299.705	1.57
300.081	1.47
300.456	1.46
300.831	1.45
301.206	1.48
301.582	1.66
301.957	1.45
302.332	1.55
302.707	1.39
303.082	1.46
303.457	1.49
303.832	1.52
304.207	1.41
304.582	1.42
304.957	1.51
305.332	1.53
305.707	1.53
306.082	1.59
306.456	1.48
306.831	1.42
307.206	1.47
307.58	1.45
307.955	1.39
308.33	1.44
308.704	1.38
309.079	1.34
309.453	1.44
309.828	1.52
310.202	1.4
310.576	1.48
310.951	1.46
311.325	1.49
311.699	1.37
312.073	1.36
312.447	1.41
312.821	1.37
313.196	1.51
313.57	1.29
313.944	1.43
314.317	1.33
314.691	1.51
315.065	1.45
315.439	1.41
315.813	1.49
316.187	1.35
316.56	1.65
316.934	1.42
317.308	1.53
317.681	1.45
318.055	1.36
318.428	1.56
318.802	1.53
319.175	1.54
319.549	1.37
319.922	1.47
320.295	1.45
320.669	1.64
321.042	1.42
321.415	1.6
321.788	1.52
322.162	1.43
322.535	1.47
322.908	1.5
323.281	1.47
323.654	1.62
324.027	1.43
324.4	1.47
324.773	1.47
325.145	1.47
325.518	1.47
325.891	1.28
326.264	1.49
326.636	1.37
327.009	1.48
327.382	1.46
327.754	1.54
328.127	1.43
328.499	1.53
328.872	1.44
329.244	1.52
329.616	1.4
329.989	1.46
330.361	1.52
330.733	1.59
331.106	1.39
331.478	1.68
331.85	1.31
332.222	1.41
332.594	1.49
332.966	1.44
333.338	1.46
333.71	1.52
334.082	1.49
334.454	1.45
334.826	1.5
335.197	1.45
335.569	1.41
335.941	1.34
336.312	1.45
336.684	1.48
337.056	1.42
337.427	1.58
337.799	1.61
338.17	1.51
338.542	1.44
338.913	1.52
339.284	1.59
339.656	1.52
340.027	1.53
340.398	1.55
340.769	1.46
341.141	1.6
341.512	1.47
341.883	1.6
342.254	1.48
342.625	1.71
342.996	1.39
343.367	1.44
343.738	1.49
344.108	1.29
344.479	1.41
344.85	1.32
345.221	1.75
345.591	1.29
345.962	1.43
346.333	1.35
346.703	1.25
347.074	1.42
347.444	1.33
347.815	1.46
348.185	1.36
348.556	1.39
348.926	1.31
349.296	1.36
349.666	1.32
350.037	1.35
350.407	1.31
350.777	1.37
351.147	1.31
351.517	1.5
351.887	1.27
352.257	1.4
352.627	1.31
352.997	1.32
353.367	1.39
353.737	1.44
354.106	1.44
354.476	1.35
354.846	1.43
355.216	1.37
355.585	1.42
355.955	1.45
356.324	1.35
356.694	1.29
357.063	1.34
357.433	1.33
357.802	1.36
358.171	1.39
358.541	1.3
358.91	1.36
359.279	1.38
359.648	1.32
360.017	1.42
360.387	1.35
360.756	1.28
361.125	1.4
361.494	1.4
361.863	1.22
362.231	1.31
362.6	1.25
362.969	1.33
363.338	1.26
363.707	1.33
364.075	1.31
364.444	1.25
364.813	1.33
365.181	1.3
365.55	1.28
365.918	1.34
366.287	1.34
366.655	1.43
367.024	1.37
367.392	1.38
367.76	1.26
368.128	1.32
368.497	1.35
368.865	1.31
369.233	1.33
369.601	1.37
369.969	1.34
370.337	1.27
370.705	1.33
371.073	1.34
371.441	1.29
371.809	1.33
372.177	1.28
372.544	1.38
372.912	1.33
373.28	1.29
373.647	1.33
374.015	1.4
374.383	1.43
374.75	1.45
375.118	1.35
375.485	1.41
375.853	1.39
376.22	1.33
376.587	1.33
376.955	1.29
377.322	1.4
377.689	1.37
378.056	1.42
378.423	1.25
378.79	1.41
379.157	1.38
379.524	1.39
379.891	1.33
380.258	1.48
380.625	1.43
380.992	1.32
381.359	1.4
381.726	1.48
382.092	1.44
382.459	1.43
382.826	1.43
383.192	1.38
383.559	1.45
383.925	1.52
384.292	1.35
384.658	1.56
385.025	1.56
385.391	1.52
385.757	1.49
386.123	1.49
386.49	1.47
386.856	1.58
387.222	1.57
387.588	1.51
387.954	1.8
388.32	1.53
388.686	1.53
389.052	1.54
389.418	1.47
389.784	1.45
390.15	1.52
390.515	1.3
390.881	1.64
391.247	1.42
391.613	1.57
391.978	1.44
392.344	1.58
392.709	1.42
393.075	1.52
393.44	1.6
393.806	1.44
394.171	1.49
394.536	1.5
394.902	1.54
395.267	1.55
395.632	1.5
395.997	1.4
396.362	1.41
396.727	1.49
397.092	1.48
397.457	1.41
397.822	1.43
398.187	1.54
398.552	1.39
398.917	1.52
399.282	1.42
399.646	1.49
400.011	1.48
400.376	1.41
400.74	1.44
401.105	1.45
401.47	1.48
401.834	1.38
402.199	1.36
402.563	1.39
402.927	1.49
403.292	1.41
403.656	1.55
404.02	1.48
404.384	1.45
404.749	1.38
405.113	1.42
405.477	1.5
405.841	1.32
406.205	1.3
406.569	1.3
406.933	1.36
407.296	1.3
407.66	1.39
408.024	1.37
408.388	1.33
408.752	1.34
409.115	1.4
409.479	1.31
409.842	1.31
410.206	1.26
410.569	1.29
410.933	1.22
411.296	1.28
411.66	1.25
412.023	1.16
412.386	1.22
412.749	1.17
413.113	1.17
413.476	1.13
413.839	1.19
414.202	1.21
414.565	1.11
414.928	1.15
415.291	1.15
415.654	1.22
416.017	1.25
416.38	1.18
416.742	1.14
417.105	1.1
417.468	1.15
417.83	1.13
418.193	1.17
418.556	1.21
418.918	1.1
419.281	1.28
419.643	1.16
420.005	1.21
420.368	1.17
420.73	1.11
421.092	1.14
421.455	1.19
421.817	1.1
422.179	1.07
422.541	1.14
422.903	1.13
423.265	1.19
423.627	1.11
423.989	1.07
424.351	1.09
424.713	1.13
425.075	1.11
425.436	1.11
425.798	1.07
426.16	1.08
426.521	1.13
426.883	1.19
427.245	1.11
427.606	1.05
427.967	1.04
428.329	1.08
428.69	1.1
429.052	1.09
429.413	1.06
429.774	1.09
430.135	1.09
430.497	1.04
430.858	1.07
431.219	1.06
431.58	1.01
431.941	1.07
432.302	1.02
432.663	1.07
433.024	1.06
433.384	1.09
433.745	0.98
434.106	1.06
434.467	0.99
434.827	1.02
435.188	1.04
435.548	1.08
435.909	1.02
436.269	1.05
436.63	0.99
436.99	0.97
437.351	0.96
437.711	1.02
438.071	0.96
438.431	1
438.792	1
439.152	0.96
439.512	0.96
439.872	0.92
440.232	0.98
440.592	1.01
440.952	0.98
441.312	0.93
441.671	0.93
442.031	0.93
442.391	0.96
442.751	0.91
443.11	0.9
443.47	0.88
443.83	0.88
444.189	0.89
444.549	0.88
444.908	0.9
445.267	0.87
445.627	0.87
445.986	0.88
446.345	0.85
446.705	0.87
447.064	0.85
447.423	0.87
447.782	0.84
448.141	0.84
448.5	0.82
448.859	0.82
449.218	0.84
449.577	0.84
449.936	0.83
450.295	0.82
450.653	0.81
451.012	0.83
451.371	0.8
451.729	0.8
452.088	0.79
452.447	0.79
452.805	0.79
453.163	0.79
453.522	0.76
453.88	0.76
454.239	0.76
454.597	0.74
454.955	0.74
455.313	0.74
455.671	0.74
456.029	0.73
456.388	0.72
456.746	0.72
457.104	0.7
457.461	0.68
457.819	0.69
458.177	0.68
458.535	0.67
458.893	0.67
459.25	0.66
459.608	0.65
459.966	0.64
460.323	0.64
460.681	0.61
461.038	0.62
461.396	0.61
461.753	0.61
462.111	0.61
462.468	0.59
462.825	0.58
463.182	0.58
463.54	0.56
463.897	0.58
464.254	0.57
464.611	0.55
464.968	0.55
465.325	0.56
465.682	0.54
466.039	0.53
466.395	0.53
466.752	0.54
467.109	0.51
467.466	0.51
467.822	0.5
468.179	0.49
468.535	0.48
468.892	0.48
469.248	0.47
469.605	0.47
469.961	0.47
470.318	0.47
470.674	0.46
471.03	0.45
471.386	0.45
471.743	0.45
472.099	0.44
472.455	0.44
472.811	0.42
473.167	0.42
473.523	0.4
473.879	0.4
474.235	0.4
474.59	0.39
474.946	0.38
475.302	0.39
475.657	0.38
476.013	0.37
476.369	0.36
476.724	0.37
477.08	0.37
477.435	0.36
477.791	0.36
478.146	0.36
478.501	0.34
478.857	0.35
479.212	0.34
479.567	0.34
479.922	0.32
480.277	0.33
480.632	0.32
480.987	0.32
481.342	0.31
481.697	0.31
482.052	0.31
482.407	0.3
482.762	0.29
483.116	0.29
483.471	0.28
483.826	0.28
484.18	0.28
484.535	0.27
484.89	0.27
485.244	0.27
485.598	0.27
485.953	0.27
486.307	0.26
486.661	0.27
487.016	0.25
487.37	0.26
487.724	0.25
488.078	0.25
488.432	0.25
488.786	0.25
489.14	0.24
489.494	0.24
489.848	0.23
490.202	0.23
490.556	0.23
490.91	0.23
491.263	0.23
491.617	0.23
491.971	0.23
492.324	0.23
492.678	0.22
493.031	0.22
493.385	0.22
493.738	0.22
494.091	0.22
494.445	0.22
494.798	0.21
495.151	0.21
495.504	0.21
495.857	0.2
496.21	0.2
496.564	0.2
496.916	0.21
497.269	0.2
497.622	0.2
497.975	0.2
498.328	0.2
498.681	0.2
499.033	0.2
499.386	0.2
499.739	0.19
500.091	0.19
500.444	0.19
500.796	0.19
501.149	0.19
501.501	0.19
501.854	0.19
502.206	0.18
502.558	0.19
502.91	0.18
503.263	0.18
503.615	0.18
503.967	0.18
504.319	0.18
504.671	0.18
505.023	0.17
505.375	0.17
505.726	0.17
506.078	0.18
506.43	0.17
506.782	0.17
507.133	0.17
507.485	0.17
507.837	0.18
508.188	0.18
508.54	0.17
508.891	0.17
509.243	0.17
509.594	0.17
509.945	0.17
510.296	0.17
510.648	0.17
510.999	0.17
511.35	0.17
511.701	0.17
512.052	0.17
512.403	0.17
512.754	0.16
513.105	0.17
513.456	0.16
513.807	0.17
514.157	0.17
514.508	0.17
514.859	0.16
515.209	0.16
515.56	0.17
515.91	0.16
516.261	0.16
516.611	0.16
516.962	0.17
517.312	0.16
517.662	0.17
518.013	0.16
518.363	0.17
518.713	0.16
519.063	0.17
519.413	0.16
519.763	0.16
520.113	0.16
520.463	0.17
520.813	0.17
521.163	0.17
521.512	0.16
521.862	0.17
522.212	0.17
522.562	0.17
522.911	0.16
523.261	0.16
523.61	0.16
523.96	0.16
524.309	0.17
524.658	0.17
525.008	0.16
525.357	0.16
525.706	0.17
526.056	0.16
526.405	0.16
526.754	0.17
527.103	0.16
527.452	0.16
527.801	0.17
528.15	0.16
528.499	0.16
528.847	0.17
529.196	0.17
529.545	0.18
529.893	0.17
530.242	0.17
530.591	0.17
530.939	0.18
531.288	0.18
531.636	0.17
531.985	0.17
532.333	0.18
532.681	0.17
533.029	0.17
533.378	0.18
533.726	0.17
534.074	0.18
534.422	0.17
534.77	0.17
535.118	0.17
535.466	0.17
535.814	0.17
536.162	0.17
536.509	0.17
536.857	0.17
537.205	0.19
537.552	0.17
537.9	0.17
538.248	0.17
538.595	0.18
538.943	0.18
539.29	0.18
539.637	0.17
539.985	0.17
540.332	0.17
540.679	0.17
541.026	0.17
541.373	0.18
541.721	0.17
542.068	0.17
542.415	0.17
542.762	0.17
543.108	0.17
543.455	0.16
543.802	0.16
544.149	0.17
544.496	0.17
544.842	0.17
545.189	0.16
545.535	0.16
545.882	0.16
546.228	0.16
546.575	0.16
546.921	0.16
547.267	0.17
547.614	0.16
547.96	0.16
548.306	0.16
548.652	0.16
548.998	0.17
549.344	0.16
549.69	0.17
550.036	0.16
550.382	0.17
550.728	0.16
551.074	0.17
551.42	0.17
551.765	0.17
552.111	0.17
552.457	0.17
552.802	0.16
553.148	0.17
553.493	0.17
553.839	0.18
554.184	0.18
554.529	0.17
554.875	0.18
555.22	0.18
555.565	0.17
555.91	0.17
556.255	0.18
556.6	0.18
556.945	0.17
557.29	0.18
557.635	0.18
557.98	0.17
558.325	0.18
558.67	0.18
559.014	0.18
559.359	0.17
559.704	0.18
560.048	0.16
560.393	0.18
560.737	0.16
561.082	0.17
561.426	0.16
561.77	0.17
562.115	0.17
562.459	0.17
562.803	0.17
563.147	0.17
563.491	0.18
563.835	0.18
564.179	0.18
564.523	0.16
564.867	0.17
565.211	0.17
565.555	0.18
565.899	0.18
566.242	0.17
566.586	0.16
566.93	0.18
567.273	0.18
567.617	0.18
567.96	0.18
568.304	0.18
568.647	0.17
568.99	0.18
569.334	0.18
569.677	0.18
570.02	0.18
570.363	0.17
570.706	0.17
571.049	0.17
571.392	0.18
571.735	0.17
572.078	0.17
572.421	0.18
572.764	0.18
573.106	0.18
573.449	0.16
573.792	0.16
574.134	0.17
574.477	0.17
574.819	0.17
575.162	0.17
575.504	0.17
575.847	0.17
576.189	0.17
576.531	0.18
576.873	0.17
577.215	0.18
577.558	0.18
577.9	0.17
578.242	0.17
578.584	0.17
578.926	0.17
579.267	0.17
579.609	0.18
579.951	0.18
580.293	0.17
580.634	0.17
580.976	0.18
581.318	0.17
581.659	0.17
582.001	0.18
582.342	0.17
582.683	0.18
583.025	0.16
583.366	0.17
583.707	0.17
584.049	0.17
584.39	0.17
584.731	0.16
585.072	0.17
585.413	0.17
585.754	0.18
586.095	0.18
586.435	0.18
586.776	0.18
587.117	0.17
587.458	0.17
587.798	0.17
588.139	0.18
588.48	0.17
588.82	0.17
589.161	0.17
589.501	0.17
589.841	0.17
590.182	0.17
590.522	0.17
590.862	0.18
591.202	0.17
591.542	0.17
591.882	0.17
592.222	0.17
592.562	0.17
592.902	0.17
593.242	0.16
593.582	0.18
593.922	0.17
594.261	0.17
594.601	0.17
594.941	0.17
595.28	0.17
595.62	0.17
595.959	0.16
596.299	0.16
596.638	0.17
596.977	0.17
597.317	0.17
597.656	0.17
597.995	0.17
598.334	0.17
598.673	0.17
599.012	0.16
599.351	0.17
599.69	0.16
600.029	0.16
600.368	0.18
600.707	0.17
601.046	0.17
601.384	0.17
601.723	0.17
602.061	0.16
602.4	0.17
602.738	0.17
603.077	0.17
603.415	0.16
603.754	0.17
604.092	0.17
604.43	0.17
604.768	0.17
605.107	0.17
605.445	0.17
605.783	0.16
606.121	0.16
606.459	0.17
606.796	0.17
607.134	0.17
607.472	0.16
607.81	0.17
608.148	0.16
608.485	0.17
608.823	0.17
609.16	0.16
609.498	0.16
609.835	0.17
610.173	0.17
610.51	0.17
610.847	0.16
611.185	0.17
611.522	0.17
611.859	0.18
612.196	0.17
612.533	0.17
612.87	0.17
613.207	0.18
613.544	0.18
613.881	0.18
614.217	0.18
614.554	0.17
614.891	0.17
615.228	0.17
615.564	0.17
615.901	0.17
616.237	0.17
616.574	0.17
616.91	0.18
617.246	0.17
617.583	0.17
617.919	0.18
618.255	0.18
618.591	0.17
618.927	0.18
619.263	0.19
619.599	0.18
619.935	0.18
620.271	0.17
620.607	0.17
620.943	0.17
621.279	0.18
621.614	0.17
621.95	0.17
622.286	0.17
622.621	0.16
622.957	0.16
623.292	0.16
623.627	0.16
623.963	0.16
624.298	0.16
624.633	0.16
624.968	0.15
625.304	0.15
625.639	0.16
625.974	0.16
626.309	0.15
626.644	0.16
626.979	0.16
627.313	0.16
627.648	0.15
627.983	0.16
628.318	0.15
628.652	0.15
628.987	0.15
629.321	0.16
629.656	0.15
629.99	0.16
630.325	0.16
630.659	0.15
630.993	0.15
631.327	0.15
631.662	0.14
631.996	0.16
632.33	0.16
632.664	0.15
632.998	0.15
633.332	0.15
633.666	0.16
633.999	0.15
634.333	0.15
634.667	0.15
635.001	0.14
635.334	0.15
635.668	0.15
636.001	0.15
636.335	0.15
636.668	0.14
637.001	0.14
637.335	0.15
637.668	0.15
638.001	0.14
638.334	0.15
638.668	0.13
639.001	0.14
639.334	0.14
639.667	0.14
639.999	0.14
640.332	0.14
640.665	0.14
640.998	0.14
641.331	0.14
641.663	0.13
641.996	0.13
642.328	0.13
642.661	0.13
642.993	0.13
643.326	0.14
643.658	0.13
643.99	0.13
644.323	0.14
644.655	0.13
644.987	0.14
645.319	0.13
645.651	0.14
645.983	0.14
646.315	0.13
646.647	0.14
646.979	0.15
647.31	0.14
647.642	0.14
647.974	0.14
648.305	0.15
648.637	0.14
648.968	0.14
649.3	0.14
649.631	0.15
649.963	0.14
650.294	0.14
650.625	0.14
650.957	0.15
651.288	0.15
651.619	0.15
651.95	0.15
652.281	0.15
652.612	0.14
652.943	0.15
653.274	0.15
653.604	0.14
653.935	0.14
654.266	0.14
654.596	0.14
654.927	0.14
655.258	0.14
655.588	0.15
655.918	0.14
656.249	0.12
656.579	0.14
656.909	0.14
657.24	0.13
657.57	0.14
657.9	0.14
658.23	0.14
658.56	0.15
658.89	0.15
659.22	0.14
659.55	0.14
659.88	0.15
660.209	0.15
660.539	0.16
660.869	0.15
661.198	0.14
661.528	0.15
661.857	0.14
662.187	0.15
662.516	0.15
662.846	0.14
663.175	0.14
663.504	0.14
663.833	0.14
664.163	0.13
664.492	0.13
664.821	0.13
665.15	0.13
665.479	0.14
665.807	0.13
666.136	0.14
666.465	0.13
666.794	0.13
667.122	0.12
667.451	0.13
667.78	0.13
668.108	0.13
668.437	0.13
668.765	0.14
669.093	0.13
669.422	0.13
669.75	0.14
670.078	0.13
670.406	0.13
670.734	0.14
671.062	0.13
671.39	0.13
671.718	0.13
672.046	0.13
672.374	0.13
672.702	0.14
673.029	0.13
673.357	0.14
673.685	0.14
674.012	0.14
674.34	0.13
674.667	0.13
674.995	0.14
675.322	0.13
675.649	0.13
675.977	0.12
676.304	0.13
676.631	0.13
676.958	0.12
677.285	0.12
677.612	0.13
677.939	0.13
678.266	0.13
678.593	0.12
678.92	0.12
679.246	0.12
679.573	0.12
679.9	0.12
680.226	0.12
680.553	0.11
680.879	0.13
681.206	0.12
681.532	0.11
681.858	0.12
682.184	0.11
682.511	0.12
682.837	0.11
683.163	0.11
683.489	0.11
683.815	0.11
684.141	0.11
684.467	0.11
684.793	0.11
685.118	0.11
685.444	0.12
685.77	0.11
686.095	0.11
686.421	0.12
686.746	0.12
687.072	0.12
687.397	0.12
687.723	0.12
688.048	0.12
688.373	0.12
688.698	0.12
689.023	0.12
689.349	0.12
689.674	0.12
689.999	0.11
690.323	0.11
690.648	0.11
690.973	0.1
691.298	0.11
691.623	0.11
691.947	0.11
692.272	0.11
692.596	0.11
692.921	0.11
693.245	0.11
693.57	0.11
693.894	0.11
694.218	0.11
694.543	0.1
694.867	0.1
695.191	0.1
695.515	0.11
695.839	0.1
696.163	0.11
696.487	0.1
696.811	0.1
697.135	0.11
697.458	0.11
697.782	0.11
698.106	0.11
698.429	0.11
698.753	0.1
699.076	0.11
699.4	0.1
699.723	0.1
700.046	0.1
700.37	0.1
700.693	0.11
701.016	0.1
701.339	0.1
701.662	0.1
701.985	0.11
702.308	0.1
702.631	0.1
702.954	0.1
703.277	0.1
703.599	0.1
703.922	0.1
704.245	0.1
704.567	0.1
704.89	0.1
705.212	0.1
705.535	0.09
705.857	0.1
706.179	0.08
706.502	0.09
706.824	0.09
707.146	0.09
707.468	0.09
707.79	0.1
708.112	0.1
708.434	0.1
708.756	0.1
709.078	0.09
709.399	0.09
709.721	0.08
710.043	0.1
710.364	0.1
710.686	0.1
711.007	0.1
711.329	0.1
711.65	0.1
711.972	0.1
712.293	0.1
712.614	0.09
712.935	0.1
713.256	0.1
713.577	0.1
713.898	0.09
714.219	0.09
714.54	0.09
714.861	0.09
715.182	0.09
715.503	0.09
715.823	0.09
716.144	0.09
716.464	0.09
716.785	0.08
717.105	0.08
717.426	0.09
717.746	0.08
718.066	0.07
718.387	0.08
718.707	0.07
719.027	0.08
719.347	0.08
719.667	0.08
719.987	0.07
720.307	0.07
720.627	0.08
720.947	0.08
721.266	0.08
721.586	0.07
721.906	0.08
722.225	0.07
722.545	0.08
722.864	0.07
723.184	0.08
723.503	0.07
723.823	0.08
724.142	0.06
724.461	0.07
724.78	0.07
725.099	0.07
725.418	0.07
725.737	0.06
726.056	0.07
726.375	0.07
726.694	0.07
727.013	0.07
727.331	0.07
727.65	0.07
727.969	0.07
728.287	0.08
728.606	0.08
728.924	0.07
729.242	0.08
729.561	0.07
729.879	0.07
730.197	0.08
730.515	0.06
730.834	0.06
731.152	0.07
731.47	0.07
731.788	0.07
732.105	0.07
732.423	0.07
732.741	0.07
733.059	0.07
733.376	0.08
733.694	0.06
734.012	0.07
734.329	0.07
734.647	0.07
734.964	0.07
735.281	0.07
735.599	0.07
735.916	0.07
736.233	0.07
736.55	0.07
736.867	0.07
737.184	0.08
737.501	0.07
737.818	0.07
738.135	0.07
738.452	0.07
738.768	0.08
739.085	0.08
739.402	0.06
739.718	0.07
740.035	0.07
740.351	0.08
740.668	0.07
740.984	0.07
741.3	0.07
741.617	0.07
741.933	0.07
742.249	0.07
742.565	0.07
742.881	0.08
743.197	0.07
743.513	0.06
743.829	0.06
744.144	0.06
744.46	0.06
744.776	0.07
745.091	0.07
745.407	0.06
745.722	0.06
746.038	0.07
746.353	0.06
746.669	0.07
746.984	0.06
747.299	0.06
747.614	0.07
747.93	0.07
748.245	0.06
748.56	0.07
748.875	0.06
749.189	0.06
749.504	0.07
749.819	0.07
750.134	0.07
750.448	0.07
750.763	0.07
751.078	0.06
751.392	0.07
751.707	0.07
752.021	0.07
752.335	0.08
752.65	0.07
752.964	0.06
753.278	0.06
753.592	0.07
753.906	0.06
754.22	0.07
754.534	0.07
754.848	0.06
755.162	0.06
755.476	0.07
755.789	0.07
756.103	0.06
756.417	0.08
756.73	0.07
757.044	0.07
757.357	0.06
757.671	0.07
757.984	0.07
758.297	0.07
758.61	0.07
758.924	0.07
759.237	0.07
759.55	0.07
759.863	0.07
760.176	0.07
760.488	0.07
760.801	0.06
761.114	0.06
761.427	0.06
761.739	0.06
762.052	0.06
762.365	0.07
762.677	0.06
762.99	0.05
763.302	0.06
763.614	0.06
763.926	0.06
764.239	0.06
764.551	0.06
764.863	0.06
765.175	0.07
765.487	0.05
765.799	0.06
766.111	0.05
766.423	0.06
766.734	0.07
767.046	0.05
767.358	0.06
767.669	0.05
767.981	0.06
768.292	0.07
768.604	0.06
768.915	0.05
769.226	0.06
769.537	0.04
769.849	0.05
770.16	0.05
770.471	0.06
770.782	0.05
771.093	0.06
771.404	0.04
771.715	0.05
772.025	0.05
772.336	0.05
772.647	0.04
772.957	0.05
773.268	0.05
773.578	0.05
773.889	0.05
774.199	0.06
774.51	0.05
774.82	0.05
775.13	0.06
775.44	0.05
775.75	0.06
776.06	0.06
776.37	0.06
776.68	0.06
776.99	0.05
777.3	0.05
777.61	0.06
777.92	0.06
778.229	0.05
778.539	0.06
778.848	0.05
779.158	0.06
779.467	0.05
779.777	0.05
780.086	0.07
780.395	0.06
780.704	0.06
781.013	0.05
781.323	0.05
781.632	0.05
781.941	0.05
782.249	0.06
782.558	0.06
782.867	0.05
783.176	0.04
783.485	0.04
783.793	0.05
784.102	0.05
784.41	0.05
784.719	0.05
785.027	0.04
785.335	0.05
785.644	0.05
785.952	0.05
786.26	0.05
786.568	0.05
786.876	0.04
787.184	0.04
787.492	0.04
787.8	0.04
788.108	0.05
788.416	0.04
788.723	0.05
789.031	0.04
789.338	0.04
789.646	0.05
789.953	0.05
790.261	0.05
790.568	0.05
790.876	0.05
791.183	0.05
791.49	0.05
791.797	0.04
792.104	0.04
792.411	0.05
792.718	0.05
793.025	0.04
793.332	0.05
793.639	0.05
793.945	0.06
794.252	0.05
794.559	0.05
794.865	0.05
795.172	0.05
795.478	0.06
795.784	0.05
796.091	0.05
796.397	0.06
796.703	0.06
797.009	0.06
797.315	0.06
797.622	0.06
797.927	0.06
798.233	0.06
798.539	0.07
798.845	0.06
799.151	0.06
799.456	0.06
799.762	0.05
800.068	0.06
800.373	0.06
800.679	0.05
800.984	0.05
801.289	0.05
801.595	0.05
801.9	0.05
802.205	0.05
802.51	0.05
802.815	0.05
803.12	0.05
803.425	0.05
803.73	0.05
804.035	0.05
804.339	0.04
804.644	0.05
804.949	0.05
805.253	0.05
805.558	0.05
805.862	0.04
806.167	0.05
806.471	0.04
806.775	0.05
807.08	0.05
807.384	0.05
807.688	0.05
807.992	0.05
808.296	0.05
808.6	0.06
808.904	0.06
809.207	0.05
809.511	0.06
809.815	0.05
810.119	0.05
810.422	0.05
810.726	0.06
811.029	0.06
811.332	0.05
811.636	0.06
811.939	0.05
812.242	0.06
812.546	0.05
812.849	0.06
813.152	0.06
813.455	0.05
813.758	0.06
814.06	0.05
814.363	0.06
814.666	0.06
814.969	0.05
815.271	0.05
815.574	0.05
815.877	0.06
816.179	0.05
816.481	0.05
816.784	0.05
817.086	0.04
817.388	0.04
817.69	0.04
817.993	0.04
818.295	0.04
818.597	0.04
818.899	0.04
819.2	0.03
819.502	0.03
819.804	0.03
820.106	0.03
820.407	0.04
820.709	0.04
821.01	0.04
821.312	0.04
821.613	0.04
821.915	0.03
822.216	0.03
822.517	0.03
822.818	0.03
823.119	0.04
823.42	0.05
823.721	0.03
824.022	0.03
824.323	0.04
824.624	0.04
824.925	0.04
825.226	0.04
825.526	0.04
825.827	0.03
826.127	0.04
826.428	0.04
826.728	0.04
827.028	0.03
827.329	0.04
827.629	0.03
827.929	0.04
828.229	0.04
828.529	0.05
828.829	0.03
829.129	0.04
829.429	0.04
829.729	0.03
830.029	0.03
830.328	0.04
830.628	0.03
830.927	0.02
831.227	0.03
831.526	0.03
831.826	0.03
832.125	0.03
832.424	0.02
832.724	0.03
833.023	0.03
833.322	0.03
833.621	0.03
833.92	0.02
834.219	0.03
834.518	0.03
834.816	0.02
835.115	0.03
835.414	0.02
835.712	0.02
836.011	0.02
836.309	0.02
836.608	0.02
836.906	0.02
837.205	0.01
837.503	0.01
837.801	0.01
838.099	0.01
838.397	0
838.695	0
838.993	0.01
839.291	-0
839.589	0.01
839.887	0.01
840.184	-0.01
840.482	-0.01
840.78	-0
841.077	-0.01
841.375	-0.01
841.672	-0.01
841.969	-0.02
842.267	-0.02
842.564	-0.01
842.861	-0.01
843.158	-0.02
843.455	-0.03
843.752	-0.03
844.049	-0.03
844.346	-0.03
844.643	-0.03
844.94	-0.04
845.236	-0.03
845.533	-0.03
845.83	-0.03
846.126	-0.04
846.423	-0.04
846.719	-0.05
847.015	-0.05
847.312	-0.04
847.608	-0.06
847.904	-0.06
848.2	-0.06
848.496	-0.06
848.792	-0.05
849.088	-0.04
849.384	-0.05
849.68	-0.06
849.975	-0.06
850.271	-0.06
850.567	-0.07
850.862	-0.06
851.158	-0.06
851.453	-0.06
851.748	-0.08
852.044	-0.07
852.339	-0.07
852.634	-0.08
852.929	-0.07
853.224	-0.08
853.519	-0.08
853.814	-0.06
854.109	-0.08
854.404	-0.08
854.699	-0.07
854.994	-0.07
855.288	-0.07
855.583	-0.07
855.877	-0.08
856.172	-0.08
856.466	-0.07
856.76	-0.08
857.055	-0.08
857.349	-0.09
857.643	-0.09
857.937	-0.1
858.231	-0.09
858.525	-0.1
858.819	-0.09
859.113	-0.11
859.407	-0.11
859.701	-0.11
859.994	-0.11
860.288	-0.1
860.581	-0.11
860.875	-0.1
861.168	-0.11
861.462	-0.11
861.755	-0.11
862.048	-0.11
862.341	-0.12
862.634	-0.11
862.928	-0.11
863.221	-0.11
863.513	-0.12
863.806	-0.12
864.099	-0.12
864.392	-0.12
864.685	-0.11
864.977	-0.11
865.27	-0.12
865.562	-0.12
865.855	-0.12
866.147	-0.13
866.44	-0.12
866.732	-0.13
867.024	-0.13
867.316	-0.13
867.608	-0.13
867.9	-0.12
868.192	-0.14
868.484	-0.14
868.776	-0.14
869.068	-0.13
869.359	-0.14
869.651	-0.14
869.943	-0.16
870.234	-0.15
870.526	-0.16
870.817	-0.17
871.108	-0.14
871.4	-0.15
871.691	-0.17
871.982	-0.16
872.273	-0.17
872.564	-0.16
872.855	-0.17
873.146	-0.17
873.437	-0.16
873.728	-0.17
874.019	-0.17
874.309	-0.17
874.6	-0.17
874.89	-0.17
875.181	-0.17
875.471	-0.17
875.762	-0.16
876.052	-0.16
876.342	-0.14
876.632	-0.17
876.922	-0.18
877.213	-0.18
877.503	-0.19
877.792	-0.17
878.082	-0.18
878.372	-0.16
878.662	-0.2
878.952	-0.18
879.241	-0.18
879.531	-0.17
879.82	-0.18
880.11	-0.18
880.399	-0.18
880.688	-0.17
880.978	-0.17
881.267	-0.17
