Data from 12-12-AQDScycling_Absorbance__734__00734.txt Node

Date: Tue Dec 12 14:00:14 EST 2023
User: kyuminlee
Spectrometer: FLMS00943
Trigger mode: 0
Integration Time (sec): 1.000000E-1
Scans to average: 1
Electric dark correction enabled: true
Nonlinearity correction enabled: false
Boxcar width: 0
XAxis mode: Wavelengths
Number of Pixels in Spectrum: 2048
>>>>>Begin Spectral Data<<<<<
179.651	-0
180.037	-0
180.424	-0
180.81	-0
181.197	0.65
181.583	-0
181.97	0.04
182.356	-0
182.743	-0
183.129	0.91
183.515	-0
183.901	-0
184.288	-0.05
184.674	-0
185.06	-0.68
185.446	0.81
185.832	-0
186.218	0.28
186.604	-0
186.99	-0
187.376	-0
187.762	-0
188.148	0.17
188.534	0.06
188.92	0.09
189.305	0.09
189.691	0.28
190.077	0.19
190.463	0.16
190.848	0.11
191.234	0.13
191.619	0.18
192.005	0.05
192.391	0.12
192.776	0.1
193.161	0.11
193.547	0.1
193.932	0.05
194.318	0.02
194.703	0.16
195.088	0.44
195.473	0.32
195.859	0.19
196.244	0.2
196.629	-0.01
197.014	0.1
197.399	0.19
197.784	0.11
198.169	0.42
198.554	0.26
198.939	0.05
199.324	0.11
199.709	0.23
200.094	0.23
200.478	0.25
200.863	0.17
201.248	0.11
201.633	0.11
202.017	0.1
202.402	0.31
202.787	0.18
203.171	0.12
203.556	0.11
203.94	0.16
204.325	0.41
204.709	0.24
205.093	0.14
205.478	0.25
205.862	0.1
206.246	0.2
206.631	0.07
207.015	0.15
207.399	0.16
207.783	0.11
208.167	0.13
208.551	0.26
208.935	0.25
209.319	0.12
209.703	0.11
210.087	0.29
210.471	0.1
210.855	0.16
211.239	0.43
211.623	0.33
212.007	0.3
212.39	0.21
212.774	0.07
213.158	0.05
213.541	0.27
213.925	0.26
214.309	0.33
214.692	0.39
215.076	0.31
215.459	0.22
215.842	0.15
216.226	0.33
216.609	0.31
216.993	0.23
217.376	0.51
217.759	0.26
218.142	0.32
218.525	0.37
218.909	0.4
219.292	0.34
219.675	0.5
220.058	0.38
220.441	0.59
220.824	0.43
221.207	0.52
221.59	0.54
221.973	0.61
222.355	0.65
222.738	0.69
223.121	0.73
223.504	0.6
223.886	0.69
224.269	0.77
224.652	0.66
225.034	0.8
225.417	0.69
225.799	0.97
226.182	0.93
226.564	0.87
226.947	0.81
227.329	0.75
227.711	1.17
228.094	0.98
228.476	1.02
228.858	0.77
229.24	0.81
229.623	0.88
230.005	0.81
230.387	0.93
230.769	0.96
231.151	1.12
231.533	0.96
231.915	1.03
232.297	1.18
232.679	1.14
233.061	0.9
233.442	1.05
233.824	0.98
234.206	1.15
234.588	1.13
234.969	1.02
235.351	1.08
235.733	0.99
236.114	1.18
236.496	1.08
236.877	1.22
237.259	1.08
237.64	1.09
238.022	0.98
238.403	1.15
238.784	1.11
239.165	0.92
239.547	1.01
239.928	1.25
240.309	1.09
240.69	1.14
241.071	1.14
241.452	1.33
241.834	1.02
242.215	1.06
242.595	1.08
242.976	1.24
243.357	1.2
243.738	1.11
244.119	1.25
244.5	1.09
244.881	1.35
245.261	1.16
245.642	1.2
246.023	1.16
246.403	1.23
246.784	1.2
247.164	1.3
247.545	1.33
247.925	1.22
248.306	1.21
248.686	1.48
249.067	1.23
249.447	1.42
249.827	1.52
250.207	1.44
250.588	1.26
250.968	1.45
251.348	1.27
251.728	1.46
252.108	1.46
252.488	1.34
252.868	1.33
253.248	1.34
253.628	1.45
254.008	1.32
254.388	1.3
254.768	1.32
255.147	1.54
255.527	1.78
255.907	1.47
256.287	1.48
256.666	1.32
257.046	1.39
257.425	1.46
257.805	1.39
258.184	1.36
258.564	1.39
258.943	1.38
259.323	1.56
259.702	1.53
260.081	1.49
260.461	1.49
260.84	1.57
261.219	1.92
261.598	1.63
261.977	1.44
262.356	1.43
262.736	1.41
263.115	1.52
263.494	1.38
263.873	1.45
264.251	1.42
264.63	1.47
265.009	1.34
265.388	1.44
265.767	1.35
266.145	1.33
266.524	1.5
266.903	1.4
267.281	1.48
267.66	1.5
268.039	1.64
268.417	1.36
268.796	1.59
269.174	1.41
269.552	1.45
269.931	1.68
270.309	1.43
270.687	1.47
271.066	1.59
271.444	1.47
271.822	1.44
272.2	1.59
272.578	1.43
272.956	1.33
273.334	1.44
273.712	1.45
274.09	1.52
274.468	1.34
274.846	1.43
275.224	1.48
275.602	1.43
275.98	1.65
276.357	1.41
276.735	1.4
277.113	1.46
277.49	1.35
277.868	1.3
278.246	1.4
278.623	1.29
279.001	1.41
279.378	1.32
279.756	1.46
280.133	1.51
280.51	1.46
280.888	1.35
281.265	1.3
281.642	1.45
282.019	1.47
282.396	1.5
282.773	1.44
283.151	1.57
283.528	1.57
283.905	1.43
284.282	1.54
284.659	1.57
285.035	1.26
285.412	1.27
285.789	1.64
286.166	1.51
286.543	1.62
286.919	1.51
287.296	1.46
287.673	1.61
288.049	1.68
288.426	1.54
288.802	1.46
289.179	1.41
289.555	1.64
289.932	1.5
290.308	1.4
290.684	1.32
291.061	1.39
291.437	1.47
291.813	1.39
292.189	1.32
292.565	1.4
292.942	1.3
293.318	1.45
293.694	1.5
294.07	1.38
294.446	1.36
294.822	1.54
295.197	1.44
295.573	1.51
295.949	1.51
296.325	1.47
296.701	1.58
297.076	1.69
297.452	1.55
297.828	1.48
298.203	1.54
298.579	1.42
298.954	1.54
299.33	1.48
299.705	1.45
300.081	1.56
300.456	1.53
300.831	1.56
301.206	1.48
301.582	1.7
301.957	1.57
302.332	1.73
302.707	1.49
303.082	1.41
303.457	1.46
303.832	1.45
304.207	1.48
304.582	1.48
304.957	1.61
305.332	1.57
305.707	1.57
306.082	1.51
306.456	1.51
306.831	1.51
307.206	1.61
307.58	1.71
307.955	1.49
308.33	1.48
308.704	1.48
309.079	1.5
309.453	1.59
309.828	1.41
310.202	1.46
310.576	1.42
310.951	1.71
311.325	1.65
311.699	1.54
312.073	1.55
312.447	1.46
312.821	1.43
313.196	1.69
313.57	1.39
313.944	1.49
314.317	1.51
314.691	1.54
315.065	1.54
315.439	1.64
315.813	1.56
316.187	1.44
316.56	1.67
316.934	1.58
317.308	1.47
317.681	1.42
318.055	1.54
318.428	1.55
318.802	1.61
319.175	1.54
319.549	1.71
319.922	1.38
320.295	1.48
320.669	1.85
321.042	1.59
321.415	1.62
321.788	1.51
322.162	1.49
322.535	1.52
322.908	1.5
323.281	1.56
323.654	1.55
324.027	1.46
324.4	1.68
324.773	1.48
325.145	1.57
325.518	1.57
325.891	1.56
326.264	1.86
326.636	1.44
327.009	1.58
327.382	1.56
327.754	1.52
328.127	1.54
328.499	1.53
328.872	1.61
329.244	1.52
329.616	1.47
329.989	1.54
330.361	1.62
330.733	1.38
331.106	1.55
331.478	1.57
331.85	1.51
332.222	1.4
332.594	1.6
332.966	1.4
333.338	1.67
333.71	1.71
334.082	1.74
334.454	1.53
334.826	1.54
335.197	1.53
335.569	1.61
335.941	1.42
336.312	1.43
336.684	1.52
337.056	1.49
337.427	1.61
337.799	1.49
338.17	1.57
338.542	1.51
338.913	1.62
339.284	1.71
339.656	1.57
340.027	1.52
340.398	1.65
340.769	1.59
341.141	1.73
341.512	1.57
341.883	1.62
342.254	1.48
342.625	1.82
342.996	1.52
343.367	1.56
343.738	1.48
344.108	1.58
344.479	1.76
344.85	1.44
345.221	1.49
345.591	1.45
345.962	1.39
346.333	1.63
346.703	1.34
347.074	1.46
347.444	1.51
347.815	1.44
348.185	1.35
348.556	1.35
348.926	1.3
349.296	1.39
349.666	1.37
350.037	1.35
350.407	1.36
350.777	1.31
351.147	1.39
351.517	1.44
351.887	1.39
352.257	1.45
352.627	1.27
352.997	1.35
353.367	1.51
353.737	1.38
354.106	1.41
354.476	1.28
354.846	1.38
355.216	1.41
355.585	1.35
355.955	1.35
356.324	1.42
356.694	1.37
357.063	1.31
357.433	1.3
357.802	1.3
358.171	1.29
358.541	1.31
358.91	1.33
359.279	1.3
359.648	1.24
360.017	1.26
360.387	1.33
360.756	1.24
361.125	1.22
361.494	1.21
361.863	1.19
362.231	1.13
362.6	1.17
362.969	1.21
363.338	1.12
363.707	1.2
364.075	1.16
364.444	1.08
364.813	1.13
365.181	1.13
365.55	1.11
365.918	1.16
366.287	1.05
366.655	1.1
367.024	1.12
367.392	1.05
367.76	1.04
368.128	1.08
368.497	1.09
368.865	1.03
369.233	1.05
369.601	1.05
369.969	0.99
370.337	1.01
370.705	1
371.073	1.06
371.441	1.03
371.809	1.01
372.177	1
372.544	1
372.912	0.97
373.28	1.04
373.647	1.05
374.015	1.03
374.383	1.03
374.75	1.03
375.118	1.02
375.485	1.03
375.853	1.01
376.22	0.99
376.587	0.98
376.955	1.02
377.322	1.03
377.689	1
378.056	1
378.423	0.97
378.79	1.01
379.157	1.02
379.524	1.02
379.891	1
380.258	1.01
380.625	1.02
380.992	1
381.359	1.02
381.726	1.07
382.092	1.01
382.459	1.01
382.826	1.04
383.192	1
383.559	1.05
383.925	1.06
384.292	1.03
384.658	1.12
385.025	1.05
385.391	1.08
385.757	1.13
386.123	1.09
386.49	1.1
386.856	1.11
387.222	1.08
387.588	1.12
387.954	1.15
388.32	1.12
388.686	1.1
389.052	1.13
389.418	1.14
389.784	1.16
390.15	1.11
390.515	1.05
390.881	1.15
391.247	1.08
391.613	1.16
391.978	1.07
392.344	1.14
392.709	1.16
393.075	1.13
393.44	1.11
393.806	1.14
394.171	1.05
394.536	1.12
394.902	1.1
395.267	1.07
395.632	1.02
395.997	1.06
396.362	1.04
396.727	1.06
397.092	1.06
397.457	1.08
397.822	1.09
398.187	1.05
398.552	1.07
398.917	1.06
399.282	1
399.646	0.99
400.011	1.12
400.376	0.99
400.74	1.02
401.105	0.97
401.47	1.04
401.834	0.98
402.199	0.98
402.563	0.99
402.927	0.96
403.292	0.99
403.656	0.99
404.02	0.99
404.384	0.98
404.749	0.99
405.113	0.96
405.477	0.96
405.841	0.9
406.205	0.91
406.569	0.9
406.933	0.9
407.296	0.91
407.66	0.88
408.024	0.91
408.388	0.91
408.752	0.89
409.115	0.89
409.479	0.85
409.842	0.85
410.206	0.83
410.569	0.85
410.933	0.82
411.296	0.84
411.66	0.84
412.023	0.82
412.386	0.81
412.749	0.8
413.113	0.81
413.476	0.77
413.839	0.8
414.202	0.79
414.565	0.78
414.928	0.79
415.291	0.78
415.654	0.78
416.017	0.78
416.38	0.78
416.742	0.74
417.105	0.74
417.468	0.76
417.83	0.74
418.193	0.77
418.556	0.74
418.918	0.75
419.281	0.73
419.643	0.77
420.005	0.74
420.368	0.74
420.73	0.73
421.092	0.74
421.455	0.74
421.817	0.73
422.179	0.73
422.541	0.71
422.903	0.75
423.265	0.75
423.627	0.72
423.989	0.72
424.351	0.71
424.713	0.69
425.075	0.7
425.436	0.7
425.798	0.7
426.16	0.73
426.521	0.69
426.883	0.71
427.245	0.71
427.606	0.67
427.967	0.67
428.329	0.67
428.69	0.7
429.052	0.68
429.413	0.7
429.774	0.7
430.135	0.68
430.497	0.69
430.858	0.66
431.219	0.67
431.58	0.66
431.941	0.65
432.302	0.66
432.663	0.67
433.024	0.68
433.384	0.68
433.745	0.65
434.106	0.64
434.467	0.66
434.827	0.69
435.188	0.65
435.548	0.67
435.909	0.65
436.269	0.66
436.63	0.63
436.99	0.63
437.351	0.62
437.711	0.65
438.071	0.64
438.431	0.63
438.792	0.64
439.152	0.59
439.512	0.63
439.872	0.6
440.232	0.63
440.592	0.63
440.952	0.6
441.312	0.6
441.671	0.6
442.031	0.59
442.391	0.6
442.751	0.6
443.11	0.59
443.47	0.57
443.83	0.58
444.189	0.57
444.549	0.57
444.908	0.58
445.267	0.56
445.627	0.56
445.986	0.55
446.345	0.55
446.705	0.55
447.064	0.56
447.423	0.54
447.782	0.53
448.141	0.53
448.5	0.52
448.859	0.54
449.218	0.53
449.577	0.53
449.936	0.54
450.295	0.51
450.653	0.53
451.012	0.53
451.371	0.53
451.729	0.51
452.088	0.52
452.447	0.51
452.805	0.51
453.163	0.52
453.522	0.51
453.88	0.5
454.239	0.5
454.597	0.48
454.955	0.48
455.313	0.48
455.671	0.48
456.029	0.47
456.388	0.47
456.746	0.46
457.104	0.46
457.461	0.45
457.819	0.45
458.177	0.44
458.535	0.43
458.893	0.44
459.25	0.44
459.608	0.42
459.966	0.42
460.323	0.42
460.681	0.4
461.038	0.41
461.396	0.41
461.753	0.4
462.111	0.4
462.468	0.4
462.825	0.38
463.182	0.38
463.54	0.38
463.897	0.38
464.254	0.38
464.611	0.38
464.968	0.37
465.325	0.37
465.682	0.36
466.039	0.36
466.395	0.35
466.752	0.35
467.109	0.35
467.466	0.35
467.822	0.34
468.179	0.33
468.535	0.33
468.892	0.33
469.248	0.32
469.605	0.31
469.961	0.32
470.318	0.32
470.674	0.32
471.03	0.31
471.386	0.31
471.743	0.31
472.099	0.31
472.455	0.3
472.811	0.3
473.167	0.3
473.523	0.28
473.879	0.28
474.235	0.28
474.59	0.28
474.946	0.28
475.302	0.27
475.657	0.27
476.013	0.27
476.369	0.26
476.724	0.26
477.08	0.25
477.435	0.26
477.791	0.25
478.146	0.25
478.501	0.25
478.857	0.25
479.212	0.24
479.567	0.24
479.922	0.23
480.277	0.22
480.632	0.22
480.987	0.23
481.342	0.22
481.697	0.22
482.052	0.21
482.407	0.21
482.762	0.21
483.116	0.21
483.471	0.21
483.826	0.2
484.18	0.2
484.535	0.2
484.89	0.19
485.244	0.19
485.598	0.19
485.953	0.19
486.307	0.19
486.661	0.19
487.016	0.18
487.37	0.19
487.724	0.18
488.078	0.18
488.432	0.18
488.786	0.18
489.14	0.18
489.494	0.17
489.848	0.17
490.202	0.17
490.556	0.17
490.91	0.17
491.263	0.16
491.617	0.17
491.971	0.17
492.324	0.17
492.678	0.17
493.031	0.17
493.385	0.16
493.738	0.17
494.091	0.16
494.445	0.16
494.798	0.16
495.151	0.15
495.504	0.16
495.857	0.16
496.21	0.15
496.564	0.15
496.916	0.16
497.269	0.15
497.622	0.15
497.975	0.14
498.328	0.14
498.681	0.14
499.033	0.14
499.386	0.14
499.739	0.14
500.091	0.14
500.444	0.13
500.796	0.14
501.149	0.14
501.501	0.14
501.854	0.14
502.206	0.14
502.558	0.14
502.91	0.15
503.263	0.13
503.615	0.14
503.967	0.14
504.319	0.14
504.671	0.13
505.023	0.13
505.375	0.13
505.726	0.13
506.078	0.14
506.43	0.13
506.782	0.13
507.133	0.13
507.485	0.14
507.837	0.14
508.188	0.14
508.54	0.13
508.891	0.14
509.243	0.13
509.594	0.14
509.945	0.13
510.296	0.13
510.648	0.13
510.999	0.13
511.35	0.13
511.701	0.13
512.052	0.13
512.403	0.13
512.754	0.14
513.105	0.13
513.456	0.13
513.807	0.13
514.157	0.13
514.508	0.13
514.859	0.12
515.209	0.13
515.56	0.14
515.91	0.12
516.261	0.13
516.611	0.13
516.962	0.12
517.312	0.13
517.662	0.14
518.013	0.13
518.363	0.14
518.713	0.13
519.063	0.13
519.413	0.13
519.763	0.13
520.113	0.13
520.463	0.14
520.813	0.14
521.163	0.13
521.512	0.13
521.862	0.13
522.212	0.13
522.562	0.14
522.911	0.13
523.261	0.13
523.61	0.14
523.96	0.13
524.309	0.14
524.658	0.15
525.008	0.13
525.357	0.13
525.706	0.13
526.056	0.13
526.405	0.13
526.754	0.13
527.103	0.12
527.452	0.13
527.801	0.14
528.15	0.13
528.499	0.13
528.847	0.14
529.196	0.14
529.545	0.14
529.893	0.14
530.242	0.14
530.591	0.14
530.939	0.14
531.288	0.14
531.636	0.14
531.985	0.14
532.333	0.14
532.681	0.14
533.029	0.14
533.378	0.14
533.726	0.14
534.074	0.14
534.422	0.13
534.77	0.15
535.118	0.14
535.466	0.14
535.814	0.14
536.162	0.15
536.509	0.15
536.857	0.14
537.205	0.15
537.552	0.14
537.9	0.14
538.248	0.13
538.595	0.14
538.943	0.15
539.29	0.14
539.637	0.14
539.985	0.14
540.332	0.15
540.679	0.14
541.026	0.13
541.373	0.15
541.721	0.13
542.068	0.14
542.415	0.14
542.762	0.14
543.108	0.14
543.455	0.13
543.802	0.13
544.149	0.14
544.496	0.13
544.842	0.13
545.189	0.13
545.535	0.13
545.882	0.13
546.228	0.12
546.575	0.13
546.921	0.13
547.267	0.13
547.614	0.13
547.96	0.12
548.306	0.13
548.652	0.13
548.998	0.14
549.344	0.13
549.69	0.14
550.036	0.13
550.382	0.13
550.728	0.13
551.074	0.14
551.42	0.13
551.765	0.13
552.111	0.14
552.457	0.15
552.802	0.14
553.148	0.13
553.493	0.13
553.839	0.13
554.184	0.15
554.529	0.13
554.875	0.15
555.22	0.14
555.565	0.14
555.91	0.14
556.255	0.15
556.6	0.15
556.945	0.13
557.29	0.14
557.635	0.15
557.98	0.14
558.325	0.14
558.67	0.14
559.014	0.14
559.359	0.14
559.704	0.14
560.048	0.13
560.393	0.14
560.737	0.13
561.082	0.14
561.426	0.12
561.77	0.14
562.115	0.13
562.459	0.13
562.803	0.14
563.147	0.13
563.491	0.14
563.835	0.14
564.179	0.14
564.523	0.13
564.867	0.13
565.211	0.14
565.555	0.14
565.899	0.15
566.242	0.14
566.586	0.14
566.93	0.14
567.273	0.15
567.617	0.14
567.96	0.14
568.304	0.14
568.647	0.14
568.99	0.15
569.334	0.15
569.677	0.14
570.02	0.14
570.363	0.15
570.706	0.15
571.049	0.14
571.392	0.15
571.735	0.14
572.078	0.14
572.421	0.15
572.764	0.14
573.106	0.15
573.449	0.14
573.792	0.14
574.134	0.15
574.477	0.15
574.819	0.14
575.162	0.14
575.504	0.14
575.847	0.15
576.189	0.14
576.531	0.14
576.873	0.14
577.215	0.14
577.558	0.15
577.9	0.14
578.242	0.15
578.584	0.14
578.926	0.14
579.267	0.14
579.609	0.14
579.951	0.14
580.293	0.14
580.634	0.15
580.976	0.14
581.318	0.14
581.659	0.14
582.001	0.14
582.342	0.13
582.683	0.14
583.025	0.14
583.366	0.13
583.707	0.14
584.049	0.14
584.39	0.14
584.731	0.14
585.072	0.13
585.413	0.14
585.754	0.14
586.095	0.14
586.435	0.14
586.776	0.14
587.117	0.13
587.458	0.14
587.798	0.14
588.139	0.14
588.48	0.13
588.82	0.14
589.161	0.13
589.501	0.14
589.841	0.13
590.182	0.14
590.522	0.14
590.862	0.14
591.202	0.14
591.542	0.14
591.882	0.14
592.222	0.14
592.562	0.14
592.902	0.13
593.242	0.13
593.582	0.14
593.922	0.14
594.261	0.13
594.601	0.13
594.941	0.14
595.28	0.13
595.62	0.13
595.959	0.14
596.299	0.14
596.638	0.13
596.977	0.14
597.317	0.14
597.656	0.14
597.995	0.14
598.334	0.15
598.673	0.13
599.012	0.14
599.351	0.15
599.69	0.15
600.029	0.15
600.368	0.15
600.707	0.14
601.046	0.15
601.384	0.15
601.723	0.15
602.061	0.14
602.4	0.15
602.738	0.15
603.077	0.14
603.415	0.13
603.754	0.15
604.092	0.14
604.43	0.14
604.768	0.14
605.107	0.15
605.445	0.14
605.783	0.14
606.121	0.13
606.459	0.14
606.796	0.14
607.134	0.13
607.472	0.14
607.81	0.14
608.148	0.13
608.485	0.14
608.823	0.14
609.16	0.14
609.498	0.14
609.835	0.14
610.173	0.13
610.51	0.14
610.847	0.14
611.185	0.14
611.522	0.14
611.859	0.14
612.196	0.14
612.533	0.14
612.87	0.14
613.207	0.14
613.544	0.14
613.881	0.15
614.217	0.15
614.554	0.14
614.891	0.14
615.228	0.14
615.564	0.15
615.901	0.15
616.237	0.15
616.574	0.15
616.91	0.15
617.246	0.15
617.583	0.15
617.919	0.15
618.255	0.15
618.591	0.14
618.927	0.14
619.263	0.15
619.599	0.14
619.935	0.14
620.271	0.15
620.607	0.14
620.943	0.14
621.279	0.15
621.614	0.14
621.95	0.14
622.286	0.14
622.621	0.14
622.957	0.14
623.292	0.14
623.627	0.13
623.963	0.14
624.298	0.14
624.633	0.14
624.968	0.13
625.304	0.13
625.639	0.14
625.974	0.13
626.309	0.13
626.644	0.13
626.979	0.14
627.313	0.14
627.648	0.13
627.983	0.14
628.318	0.13
628.652	0.13
628.987	0.13
629.321	0.14
629.656	0.13
629.99	0.13
630.325	0.13
630.659	0.13
630.993	0.12
631.327	0.13
631.662	0.11
631.996	0.12
632.33	0.13
632.664	0.12
632.998	0.12
633.332	0.12
633.666	0.13
633.999	0.12
634.333	0.12
634.667	0.12
635.001	0.12
635.334	0.12
635.668	0.12
636.001	0.12
636.335	0.13
636.668	0.12
637.001	0.11
637.335	0.12
637.668	0.12
638.001	0.12
638.334	0.12
638.668	0.11
639.001	0.12
639.334	0.12
639.667	0.12
639.999	0.11
640.332	0.12
640.665	0.12
640.998	0.12
641.331	0.12
641.663	0.12
641.996	0.12
642.328	0.12
642.661	0.13
642.993	0.12
643.326	0.12
643.658	0.12
643.99	0.12
644.323	0.13
644.655	0.12
644.987	0.13
645.319	0.13
645.651	0.13
645.983	0.12
646.315	0.12
646.647	0.12
646.979	0.13
647.31	0.13
647.642	0.12
647.974	0.12
648.305	0.13
648.637	0.13
648.968	0.12
649.3	0.12
649.631	0.12
649.963	0.12
650.294	0.12
650.625	0.12
650.957	0.13
651.288	0.12
651.619	0.12
651.95	0.13
652.281	0.13
652.612	0.13
652.943	0.13
653.274	0.13
653.604	0.13
653.935	0.11
654.266	0.13
654.596	0.12
654.927	0.13
655.258	0.13
655.588	0.13
655.918	0.12
656.249	0.11
656.579	0.11
656.909	0.12
657.24	0.11
657.57	0.12
657.9	0.12
658.23	0.12
658.56	0.12
658.89	0.12
659.22	0.12
659.55	0.12
659.88	0.12
660.209	0.12
660.539	0.13
660.869	0.12
661.198	0.12
661.528	0.12
661.857	0.12
662.187	0.12
662.516	0.11
662.846	0.11
663.175	0.12
663.504	0.12
663.833	0.11
664.163	0.12
664.492	0.11
664.821	0.12
665.15	0.12
665.479	0.11
665.807	0.11
666.136	0.11
666.465	0.12
666.794	0.12
667.122	0.11
667.451	0.12
667.78	0.12
668.108	0.12
668.437	0.12
668.765	0.12
669.093	0.13
669.422	0.12
669.75	0.12
670.078	0.11
670.406	0.12
670.734	0.12
671.062	0.12
671.39	0.11
671.718	0.12
672.046	0.12
672.374	0.11
672.702	0.11
673.029	0.11
673.357	0.12
673.685	0.12
674.012	0.11
674.34	0.11
674.667	0.12
674.995	0.11
675.322	0.12
675.649	0.1
675.977	0.11
676.304	0.11
676.631	0.12
676.958	0.11
677.285	0.11
677.612	0.1
677.939	0.11
678.266	0.11
678.593	0.11
678.92	0.11
679.246	0.11
679.573	0.11
679.9	0.11
680.226	0.11
680.553	0.11
680.879	0.11
681.206	0.11
681.532	0.1
681.858	0.11
682.184	0.11
682.511	0.11
682.837	0.12
683.163	0.11
683.489	0.11
683.815	0.11
684.141	0.11
684.467	0.11
684.793	0.11
685.118	0.11
685.444	0.11
685.77	0.11
686.095	0.1
686.421	0.1
686.746	0.11
687.072	0.1
687.397	0.1
687.723	0.12
688.048	0.11
688.373	0.1
688.698	0.1
689.023	0.11
689.349	0.1
689.674	0.1
689.999	0.1
690.323	0.09
690.648	0.09
690.973	0.09
691.298	0.1
691.623	0.1
691.947	0.1
692.272	0.1
692.596	0.11
692.921	0.1
693.245	0.1
693.57	0.11
693.894	0.11
694.218	0.11
694.543	0.1
694.867	0.1
695.191	0.1
695.515	0.11
695.839	0.1
696.163	0.1
696.487	0.1
696.811	0.1
697.135	0.1
697.458	0.11
697.782	0.1
698.106	0.1
698.429	0.1
698.753	0.1
699.076	0.1
699.4	0.1
699.723	0.1
700.046	0.1
700.37	0.1
700.693	0.1
701.016	0.1
701.339	0.1
701.662	0.1
701.985	0.1
702.308	0.1
702.631	0.1
702.954	0.1
703.277	0.1
703.599	0.09
703.922	0.09
704.245	0.08
704.567	0.09
704.89	0.09
705.212	0.1
705.535	0.09
705.857	0.09
706.179	0.09
706.502	0.08
706.824	0.08
707.146	0.09
707.468	0.1
707.79	0.09
708.112	0.1
708.434	0.09
708.756	0.09
709.078	0.09
709.399	0.08
709.721	0.09
710.043	0.09
710.364	0.09
710.686	0.09
711.007	0.09
711.329	0.1
711.65	0.09
711.972	0.09
712.293	0.09
712.614	0.09
712.935	0.09
713.256	0.1
713.577	0.1
713.898	0.09
714.219	0.09
714.54	0.09
714.861	0.08
715.182	0.09
715.503	0.09
715.823	0.09
716.144	0.08
716.464	0.08
716.785	0.08
717.105	0.08
717.426	0.08
717.746	0.08
718.066	0.08
718.387	0.08
718.707	0.07
719.027	0.08
719.347	0.07
719.667	0.08
719.987	0.08
720.307	0.08
720.627	0.08
720.947	0.08
721.266	0.08
721.586	0.07
721.906	0.08
722.225	0.07
722.545	0.08
722.864	0.07
723.184	0.08
723.503	0.08
723.823	0.08
724.142	0.08
724.461	0.08
724.78	0.08
725.099	0.08
725.418	0.08
725.737	0.08
726.056	0.08
726.375	0.08
726.694	0.08
727.013	0.08
727.331	0.07
727.65	0.07
727.969	0.08
728.287	0.08
728.606	0.08
728.924	0.07
729.242	0.07
729.561	0.08
729.879	0.07
730.197	0.08
730.515	0.08
730.834	0.07
731.152	0.07
731.47	0.08
731.788	0.08
732.105	0.07
732.423	0.08
732.741	0.07
733.059	0.08
733.376	0.08
733.694	0.08
734.012	0.08
734.329	0.08
734.647	0.08
734.964	0.08
735.281	0.08
735.599	0.09
735.916	0.09
736.233	0.08
736.55	0.08
736.867	0.08
737.184	0.09
737.501	0.08
737.818	0.07
738.135	0.09
738.452	0.08
738.768	0.08
739.085	0.07
739.402	0.07
739.718	0.08
740.035	0.07
740.351	0.08
740.668	0.07
740.984	0.08
741.3	0.07
741.617	0.08
741.933	0.08
742.249	0.09
742.565	0.08
742.881	0.08
743.197	0.08
743.513	0.07
743.829	0.07
744.144	0.07
744.46	0.07
744.776	0.08
745.091	0.07
745.407	0.07
745.722	0.07
746.038	0.06
746.353	0.06
746.669	0.08
746.984	0.06
747.299	0.07
747.614	0.07
747.93	0.07
748.245	0.06
748.56	0.08
748.875	0.06
749.189	0.06
749.504	0.06
749.819	0.06
750.134	0.07
750.448	0.06
750.763	0.07
751.078	0.06
751.392	0.06
751.707	0.07
752.021	0.07
752.335	0.08
752.65	0.07
752.964	0.06
753.278	0.06
753.592	0.07
753.906	0.06
754.22	0.08
754.534	0.07
754.848	0.07
755.162	0.07
755.476	0.07
755.789	0.07
756.103	0.06
756.417	0.07
756.73	0.07
757.044	0.07
757.357	0.07
757.671	0.07
757.984	0.07
758.297	0.07
758.61	0.07
758.924	0.07
759.237	0.06
759.55	0.07
759.863	0.06
760.176	0.06
760.488	0.07
760.801	0.07
761.114	0.07
761.427	0.06
761.739	0.06
762.052	0.06
762.365	0.06
762.677	0.06
762.99	0.06
763.302	0.06
763.614	0.06
763.926	0.07
764.239	0.06
764.551	0.06
764.863	0.06
765.175	0.07
765.487	0.06
765.799	0.05
766.111	0.06
766.423	0.06
766.734	0.06
767.046	0.06
767.358	0.07
767.669	0.07
767.981	0.07
768.292	0.06
768.604	0.07
768.915	0.06
769.226	0.06
769.537	0.04
769.849	0.07
770.16	0.06
770.471	0.05
770.782	0.06
771.093	0.07
771.404	0.05
771.715	0.05
772.025	0.06
772.336	0.06
772.647	0.05
772.957	0.06
773.268	0.06
773.578	0.06
773.889	0.06
774.199	0.06
774.51	0.06
774.82	0.06
775.13	0.06
775.44	0.06
775.75	0.07
776.06	0.07
776.37	0.06
776.68	0.07
776.99	0.07
777.3	0.06
777.61	0.07
777.92	0.07
778.229	0.07
778.539	0.06
778.848	0.06
779.158	0.06
779.467	0.06
779.777	0.05
780.086	0.07
780.395	0.06
780.704	0.06
781.013	0.05
781.323	0.05
781.632	0.06
781.941	0.05
782.249	0.06
782.558	0.06
782.867	0.06
783.176	0.05
783.485	0.05
783.793	0.05
784.102	0.05
784.41	0.05
784.719	0.05
785.027	0.05
785.335	0.05
785.644	0.06
785.952	0.05
786.26	0.06
786.568	0.05
786.876	0.05
787.184	0.06
787.492	0.05
787.8	0.06
788.108	0.06
788.416	0.05
788.723	0.06
789.031	0.05
789.338	0.06
789.646	0.06
789.953	0.06
790.261	0.06
790.568	0.07
790.876	0.06
791.183	0.06
791.49	0.06
791.797	0.06
792.104	0.05
792.411	0.06
792.718	0.06
793.025	0.06
793.332	0.05
793.639	0.06
793.945	0.06
794.252	0.06
794.559	0.05
794.865	0.06
795.172	0.06
795.478	0.05
795.784	0.06
796.091	0.06
796.397	0.06
796.703	0.06
797.009	0.07
797.315	0.07
797.622	0.06
797.927	0.07
798.233	0.06
798.539	0.06
798.845	0.06
799.151	0.07
799.456	0.07
799.762	0.07
800.068	0.06
800.373	0.07
800.679	0.07
800.984	0.07
801.289	0.07
801.595	0.07
801.9	0.07
802.205	0.07
802.51	0.06
802.815	0.07
803.12	0.07
803.425	0.06
803.73	0.06
804.035	0.07
804.339	0.06
804.644	0.06
804.949	0.06
805.253	0.06
805.558	0.06
805.862	0.06
806.167	0.06
806.471	0.05
806.775	0.06
807.08	0.06
807.384	0.05
807.688	0.06
807.992	0.06
808.296	0.05
808.6	0.05
808.904	0.06
809.207	0.06
809.511	0.07
809.815	0.07
810.119	0.06
810.422	0.07
810.726	0.07
811.029	0.08
811.332	0.07
811.636	0.07
811.939	0.07
812.242	0.07
812.546	0.07
812.849	0.06
813.152	0.07
813.455	0.07
813.758	0.07
814.06	0.07
814.363	0.07
814.666	0.07
814.969	0.07
815.271	0.07
815.574	0.07
815.877	0.06
816.179	0.06
816.481	0.06
816.784	0.06
817.086	0.06
817.388	0.05
817.69	0.05
817.993	0.05
818.295	0.06
818.597	0.05
818.899	0.05
819.2	0.05
819.502	0.05
819.804	0.05
820.106	0.05
820.407	0.04
820.709	0.05
821.01	0.05
821.312	0.05
821.613	0.04
821.915	0.04
822.216	0.04
822.517	0.04
822.818	0.04
823.119	0.05
823.42	0.05
823.721	0.04
824.022	0.04
824.323	0.04
824.624	0.05
824.925	0.05
825.226	0.05
825.526	0.04
825.827	0.05
826.127	0.05
826.428	0.05
826.728	0.04
827.028	0.04
827.329	0.04
827.629	0.04
827.929	0.04
828.229	0.04
828.529	0.05
828.829	0.04
829.129	0.04
829.429	0.04
829.729	0.04
830.029	0.04
830.328	0.04
830.628	0.03
830.927	0.04
831.227	0.03
831.526	0.04
831.826	0.04
832.125	0.04
832.424	0.03
832.724	0.04
833.023	0.04
833.322	0.04
833.621	0.03
833.92	0.02
834.219	0.03
834.518	0.03
834.816	0.02
835.115	0.02
835.414	0.03
835.712	0.02
836.011	0.02
836.309	0.02
836.608	0.01
836.906	0.01
837.205	0.01
837.503	0.01
837.801	0.01
838.099	0.01
838.397	-0.01
838.695	-0
838.993	-0
839.291	-0
839.589	-0.01
839.887	-0.01
840.184	-0.01
840.482	-0
840.78	-0.01
841.077	-0.01
841.375	-0
841.672	-0.01
841.969	-0
842.267	-0.01
842.564	-0
842.861	0
843.158	-0.01
843.455	-0.02
843.752	-0.02
844.049	-0.02
844.346	-0.02
844.643	-0.02
844.94	-0.02
845.236	-0.01
845.533	-0.02
845.83	-0.02
846.126	-0.02
846.423	-0.02
846.719	-0.03
847.015	-0.03
847.312	-0.03
847.608	-0.03
847.904	-0.03
848.2	-0.02
848.496	-0.03
848.792	-0.03
849.088	-0.02
849.384	-0.03
849.68	-0.04
849.975	-0.03
850.271	-0.05
850.567	-0.04
850.862	-0.04
851.158	-0.04
851.453	-0.04
851.748	-0.05
852.044	-0.04
852.339	-0.04
852.634	-0.06
852.929	-0.04
853.224	-0.05
853.519	-0.05
853.814	-0.05
854.109	-0.06
854.404	-0.05
854.699	-0.06
854.994	-0.06
855.288	-0.05
855.583	-0.05
855.877	-0.06
856.172	-0.05
856.466	-0.07
856.76	-0.06
857.055	-0.06
857.349	-0.07
857.643	-0.07
857.937	-0.08
858.231	-0.08
858.525	-0.08
858.819	-0.08
859.113	-0.09
859.407	-0.1
859.701	-0.1
859.994	-0.1
860.288	-0.09
860.581	-0.09
860.875	-0.1
861.168	-0.1
861.462	-0.1
861.755	-0.09
862.048	-0.1
862.341	-0.11
862.634	-0.11
862.928	-0.1
863.221	-0.11
863.513	-0.11
863.806	-0.11
864.099	-0.11
864.392	-0.11
864.685	-0.1
864.977	-0.11
865.27	-0.11
865.562	-0.11
865.855	-0.11
866.147	-0.12
866.44	-0.11
866.732	-0.13
867.024	-0.12
867.316	-0.12
867.608	-0.12
867.9	-0.12
868.192	-0.12
868.484	-0.12
868.776	-0.12
869.068	-0.12
869.359	-0.13
869.651	-0.13
869.943	-0.15
870.234	-0.14
870.526	-0.14
870.817	-0.14
871.108	-0.12
871.4	-0.12
871.691	-0.14
871.982	-0.15
872.273	-0.16
872.564	-0.14
872.855	-0.14
873.146	-0.15
873.437	-0.15
873.728	-0.16
874.019	-0.15
874.309	-0.16
874.6	-0.15
874.89	-0.16
875.181	-0.17
875.471	-0.16
875.762	-0.15
876.052	-0.15
876.342	-0.14
876.632	-0.15
876.922	-0.17
877.213	-0.16
877.503	-0.18
877.792	-0.16
878.082	-0.17
878.372	-0.17
878.662	-0.19
878.952	-0.18
879.241	-0.17
879.531	-0.16
879.82	-0.17
880.11	-0.16
880.399	-0.17
880.688	-0.14
880.978	-0.14
881.267	-0.14
