Data from 12-12-AQDScycling_Absorbance__422__00422.txt Node

Date: Tue Dec 12 12:42:14 EST 2023
User: kyuminlee
Spectrometer: FLMS00943
Trigger mode: 0
Integration Time (sec): 1.000000E-1
Scans to average: 1
Electric dark correction enabled: true
Nonlinearity correction enabled: false
Boxcar width: 0
XAxis mode: Wavelengths
Number of Pixels in Spectrum: 2048
>>>>>Begin Spectral Data<<<<<
179.651	-0
180.037	-0
180.424	-0
180.81	-0.07
181.197	0.17
181.583	-0.13
181.97	0.37
182.356	-0
182.743	-0.62
183.129	-0
183.515	0.24
183.901	-1.91
184.288	0.14
184.674	1.05
185.06	-0.92
185.446	0.25
185.832	-1.26
186.218	0
186.604	-0
186.99	-0
187.376	-0.02
187.762	0.56
188.148	0.8
188.534	-0.31
188.92	0.08
189.305	0.1
189.691	0.32
190.077	0.13
190.463	0.24
190.848	0.14
191.234	0.14
191.619	0.13
192.005	0.07
192.391	0.18
192.776	0.12
193.161	0.27
193.547	0.14
193.932	-0.04
194.318	0.12
194.703	0.27
195.088	0.5
195.473	0.2
195.859	0.27
196.244	0.16
196.629	0.07
197.014	0.06
197.399	0.14
197.784	0.27
198.169	0.13
198.554	0.13
198.939	0.11
199.324	0.1
199.709	0.14
200.094	0.15
200.478	0.09
200.863	0.15
201.248	0.22
201.633	0.13
202.017	0.31
202.402	0.23
202.787	0.04
203.171	0.2
203.556	0.17
203.94	0.28
204.325	0.19
204.709	0.2
205.093	0.1
205.478	0.27
205.862	0.17
206.246	0.32
206.631	0.21
207.015	0.06
207.399	0.16
207.783	0.11
208.167	0.18
208.551	0.19
208.935	0.2
209.319	0.17
209.703	0.22
210.087	0.47
210.471	0.08
210.855	0.07
211.239	0.28
211.623	0.31
212.007	0.24
212.39	0.34
212.774	0.42
213.158	0.08
213.541	0.38
213.925	0.34
214.309	0.35
214.692	0.38
215.076	0.27
215.459	0.15
215.842	0.19
216.226	0.28
216.609	0.36
216.993	0.19
217.376	0.44
217.759	0.16
218.142	0.27
218.525	0.69
218.909	0.45
219.292	0.34
219.675	0.4
220.058	0.36
220.441	0.46
220.824	0.47
221.207	0.57
221.59	0.55
221.973	0.49
222.355	0.77
222.738	0.79
223.121	0.58
223.504	0.56
223.886	0.8
224.269	0.79
224.652	0.66
225.034	0.73
225.417	0.69
225.799	0.83
226.182	0.87
226.564	0.9
226.947	0.85
227.329	0.87
227.711	0.88
228.094	0.88
228.476	1.05
228.858	0.8
229.24	0.83
229.623	0.77
230.005	0.91
230.387	0.94
230.769	0.91
231.151	0.93
231.533	0.99
231.915	0.99
232.297	1.04
232.679	0.97
233.061	1
233.442	0.99
233.824	0.98
234.206	1.14
234.588	1.12
234.969	1.09
235.351	1.03
235.733	0.95
236.114	1.12
236.496	1.1
236.877	1.17
237.259	1.24
237.64	1.13
238.022	1.04
238.403	1.03
238.784	1.07
239.165	0.99
239.547	1.08
239.928	1.05
240.309	1.09
240.69	1.08
241.071	1.14
241.452	1.05
241.834	1.14
242.215	1.06
242.595	1
242.976	1.15
243.357	1.17
243.738	1.06
244.119	1.18
244.5	1.14
244.881	1.14
245.261	1.21
245.642	1.18
246.023	1.08
246.403	1.22
246.784	1.23
247.164	1.13
247.545	1.36
247.925	1.33
248.306	1.21
248.686	1.47
249.067	1.34
249.447	1.41
249.827	1.4
250.207	1.58
250.588	1.29
250.968	1.66
251.348	1.27
251.728	1.6
252.108	1.52
252.488	1.46
252.868	1.4
253.248	1.33
253.628	1.49
254.008	1.46
254.388	1.22
254.768	1.37
255.147	1.39
255.527	1.42
255.907	1.4
256.287	1.29
256.666	1.47
257.046	1.63
257.425	1.73
257.805	1.33
258.184	1.36
258.564	1.34
258.943	1.43
259.323	1.51
259.702	1.48
260.081	1.45
260.461	1.46
260.84	1.43
261.219	1.81
261.598	1.41
261.977	1.5
262.356	1.58
262.736	1.48
263.115	1.48
263.494	1.45
263.873	1.44
264.251	1.56
264.63	1.45
265.009	1.5
265.388	1.51
265.767	1.44
266.145	1.56
266.524	1.53
266.903	1.35
267.281	1.4
267.66	1.57
268.039	1.45
268.417	1.47
268.796	1.51
269.174	1.5
269.552	1.34
269.931	1.52
270.309	1.43
270.687	1.67
271.066	1.93
271.444	1.45
271.822	1.48
272.2	1.38
272.578	1.68
272.956	1.65
273.334	1.36
273.712	1.38
274.09	1.53
274.468	1.58
274.846	1.39
275.224	1.38
275.602	1.42
275.98	1.69
276.357	1.44
276.735	1.67
277.113	1.37
277.49	1.35
277.868	1.41
278.246	1.49
278.623	1.41
279.001	1.37
279.378	1.54
279.756	1.54
280.133	1.5
280.51	1.48
280.888	1.61
281.265	1.41
281.642	1.51
282.019	1.66
282.396	1.68
282.773	1.34
283.151	1.51
283.528	1.52
283.905	1.47
284.282	1.68
284.659	1.56
285.035	1.37
285.412	1.26
285.789	1.42
286.166	1.51
286.543	1.51
286.919	1.52
287.296	1.49
287.673	1.71
288.049	1.69
288.426	1.54
288.802	1.54
289.179	1.5
289.555	1.57
289.932	1.46
290.308	1.36
290.684	1.33
291.061	1.41
291.437	1.63
291.813	1.43
292.189	1.27
292.565	1.44
292.942	1.36
293.318	1.5
293.694	1.56
294.07	1.29
294.446	1.36
294.822	1.56
295.197	1.44
295.573	1.46
295.949	1.43
296.325	1.49
296.701	1.48
297.076	1.89
297.452	1.62
297.828	1.4
298.203	1.57
298.579	1.47
298.954	1.48
299.33	1.44
299.705	1.53
300.081	1.56
300.456	1.59
300.831	1.47
301.206	1.46
301.582	1.62
301.957	1.38
302.332	1.73
302.707	1.49
303.082	1.37
303.457	1.45
303.832	1.45
304.207	1.45
304.582	1.48
304.957	1.45
305.332	1.6
305.707	1.41
306.082	1.6
306.456	1.4
306.831	1.49
307.206	1.5
307.58	1.56
307.955	1.44
308.33	1.43
308.704	1.57
309.079	1.44
309.453	1.59
309.828	1.4
310.202	1.43
310.576	1.48
310.951	1.5
311.325	1.42
311.699	1.37
312.073	1.35
312.447	1.38
312.821	1.43
313.196	1.44
313.57	1.3
313.944	1.33
314.317	1.25
314.691	1.43
315.065	1.39
315.439	1.48
315.813	1.4
316.187	1.37
316.56	1.46
316.934	1.5
317.308	1.6
317.681	1.39
318.055	1.46
318.428	1.43
318.802	1.36
319.175	1.43
319.549	1.62
319.922	1.33
320.295	1.41
320.669	1.43
321.042	1.46
321.415	1.58
321.788	1.48
322.162	1.41
322.535	1.47
322.908	1.57
323.281	1.44
323.654	1.59
324.027	1.48
324.4	1.52
324.773	1.51
325.145	1.5
325.518	1.34
325.891	1.42
326.264	1.51
326.636	1.41
327.009	1.42
327.382	1.49
327.754	1.48
328.127	1.51
328.499	1.58
328.872	1.49
329.244	1.49
329.616	1.48
329.989	1.42
330.361	1.52
330.733	1.59
331.106	1.41
331.478	1.45
331.85	1.47
332.222	1.36
332.594	1.54
332.966	1.6
333.338	1.82
333.71	1.5
334.082	1.66
334.454	1.45
334.826	1.54
335.197	1.43
335.569	1.52
335.941	1.44
336.312	1.52
336.684	1.5
337.056	1.37
337.427	1.54
337.799	1.64
338.17	1.54
338.542	1.41
338.913	1.49
339.284	1.46
339.656	1.45
340.027	1.51
340.398	1.45
340.769	1.62
341.141	1.93
341.512	1.49
341.883	1.55
342.254	1.55
342.625	1.45
342.996	1.49
343.367	1.46
343.738	1.43
344.108	1.45
344.479	1.47
344.85	1.46
345.221	1.63
345.591	1.53
345.962	1.39
346.333	1.51
346.703	1.32
347.074	1.47
347.444	1.32
347.815	1.43
348.185	1.45
348.556	1.3
348.926	1.33
349.296	1.49
349.666	1.48
350.037	1.34
350.407	1.27
350.777	1.27
351.147	1.35
351.517	1.38
351.887	1.38
352.257	1.44
352.627	1.33
352.997	1.24
353.367	1.35
353.737	1.4
354.106	1.39
354.476	1.27
354.846	1.43
355.216	1.38
355.585	1.45
355.955	1.37
356.324	1.39
356.694	1.39
357.063	1.42
357.433	1.32
357.802	1.38
358.171	1.42
358.541	1.32
358.91	1.36
359.279	1.39
359.648	1.27
360.017	1.4
360.387	1.34
360.756	1.3
361.125	1.38
361.494	1.36
361.863	1.33
362.231	1.29
362.6	1.36
362.969	1.37
363.338	1.27
363.707	1.33
364.075	1.38
364.444	1.25
364.813	1.26
365.181	1.31
365.55	1.41
365.918	1.38
366.287	1.33
366.655	1.31
367.024	1.31
367.392	1.39
367.76	1.32
368.128	1.32
368.497	1.26
368.865	1.31
369.233	1.34
369.601	1.35
369.969	1.35
370.337	1.43
370.705	1.39
371.073	1.39
371.441	1.35
371.809	1.23
372.177	1.32
372.544	1.33
372.912	1.34
373.28	1.39
373.647	1.44
374.015	1.38
374.383	1.63
374.75	1.42
375.118	1.39
375.485	1.47
375.853	1.42
376.22	1.31
376.587	1.34
376.955	1.39
377.322	1.32
377.689	1.33
378.056	1.32
378.423	1.32
378.79	1.41
379.157	1.37
379.524	1.44
379.891	1.32
380.258	1.43
380.625	1.38
380.992	1.46
381.359	1.54
381.726	1.49
382.092	1.5
382.459	1.41
382.826	1.37
383.192	1.61
383.559	1.33
383.925	1.41
384.292	1.42
384.658	1.51
385.025	1.51
385.391	1.53
385.757	1.65
386.123	1.49
386.49	1.52
386.856	1.5
387.222	1.51
387.588	1.52
387.954	1.65
388.32	1.65
388.686	1.59
389.052	1.56
389.418	1.58
389.784	1.52
390.15	1.5
390.515	1.33
390.881	1.69
391.247	1.45
391.613	1.56
391.978	1.46
392.344	1.6
392.709	1.62
393.075	1.49
393.44	1.6
393.806	1.6
394.171	1.39
394.536	1.45
394.902	1.51
395.267	1.44
395.632	1.45
395.997	1.42
396.362	1.55
396.727	1.49
397.092	1.43
397.457	1.44
397.822	1.44
398.187	1.49
398.552	1.41
398.917	1.62
399.282	1.41
399.646	1.44
400.011	1.46
400.376	1.38
400.74	1.39
401.105	1.39
401.47	1.44
401.834	1.44
402.199	1.38
402.563	1.42
402.927	1.5
403.292	1.52
403.656	1.43
404.02	1.48
404.384	1.5
404.749	1.39
405.113	1.36
405.477	1.38
405.841	1.37
406.205	1.32
406.569	1.35
406.933	1.36
407.296	1.42
407.66	1.34
408.024	1.31
408.388	1.31
408.752	1.38
409.115	1.44
409.479	1.31
409.842	1.32
410.206	1.3
410.569	1.3
410.933	1.27
411.296	1.27
411.66	1.3
412.023	1.2
412.386	1.27
412.749	1.21
413.113	1.28
413.476	1.22
413.839	1.18
414.202	1.34
414.565	1.14
414.928	1.22
415.291	1.17
415.654	1.2
416.017	1.21
416.38	1.22
416.742	1.17
417.105	1.17
417.468	1.18
417.83	1.17
418.193	1.27
418.556	1.14
418.918	1.18
419.281	1.14
419.643	1.18
420.005	1.17
420.368	1.18
420.73	1.15
421.092	1.21
421.455	1.17
421.817	1.15
422.179	1.13
422.541	1.11
422.903	1.18
423.265	1.15
423.627	1.14
423.989	1.14
424.351	1.17
424.713	1.13
425.075	1.07
425.436	1.17
425.798	1.1
426.16	1.15
426.521	1.17
426.883	1.13
427.245	1.08
427.606	1.03
427.967	1.1
428.329	1.1
428.69	1.12
429.052	1.11
429.413	1.14
429.774	1.09
430.135	1.11
430.497	1.13
430.858	1.08
431.219	1.06
431.58	1.08
431.941	1.03
432.302	1.04
432.663	1.05
433.024	1.13
433.384	1.05
433.745	1.07
434.106	1.07
434.467	1.04
434.827	1.04
435.188	1.05
435.548	1.07
435.909	1.04
436.269	1.04
436.63	0.98
436.99	1.04
437.351	0.96
437.711	1
438.071	1
438.431	0.97
438.792	0.99
439.152	1
439.512	0.97
439.872	0.96
440.232	0.99
440.592	0.97
440.952	0.93
441.312	0.93
441.671	0.95
442.031	0.94
442.391	0.96
442.751	0.95
443.11	0.94
443.47	0.92
443.83	0.91
444.189	0.9
444.549	0.93
444.908	0.9
445.267	0.9
445.627	0.88
445.986	0.88
446.345	0.88
446.705	0.88
447.064	0.88
447.423	0.88
447.782	0.87
448.141	0.86
448.5	0.84
448.859	0.83
449.218	0.84
449.577	0.83
449.936	0.84
450.295	0.81
450.653	0.84
451.012	0.8
451.371	0.82
451.729	0.8
452.088	0.79
452.447	0.8
452.805	0.8
453.163	0.8
453.522	0.79
453.88	0.77
454.239	0.77
454.597	0.75
454.955	0.75
455.313	0.75
455.671	0.75
456.029	0.74
456.388	0.73
456.746	0.72
457.104	0.7
457.461	0.69
457.819	0.7
458.177	0.7
458.535	0.68
458.893	0.67
459.25	0.66
459.608	0.67
459.966	0.64
460.323	0.65
460.681	0.63
461.038	0.63
461.396	0.62
461.753	0.61
462.111	0.61
462.468	0.59
462.825	0.59
463.182	0.59
463.54	0.57
463.897	0.58
464.254	0.57
464.611	0.56
464.968	0.56
465.325	0.55
465.682	0.54
466.039	0.54
466.395	0.53
466.752	0.52
467.109	0.5
467.466	0.51
467.822	0.5
468.179	0.49
468.535	0.5
468.892	0.49
469.248	0.48
469.605	0.47
469.961	0.47
470.318	0.47
470.674	0.47
471.03	0.45
471.386	0.46
471.743	0.45
472.099	0.44
472.455	0.43
472.811	0.42
473.167	0.43
473.523	0.41
473.879	0.41
474.235	0.4
474.59	0.39
474.946	0.39
475.302	0.38
475.657	0.38
476.013	0.38
476.369	0.37
476.724	0.37
477.08	0.36
477.435	0.36
477.791	0.36
478.146	0.35
478.501	0.35
478.857	0.34
479.212	0.34
479.567	0.34
479.922	0.33
480.277	0.32
480.632	0.31
480.987	0.32
481.342	0.3
481.697	0.3
482.052	0.3
482.407	0.3
482.762	0.3
483.116	0.28
483.471	0.28
483.826	0.27
484.18	0.28
484.535	0.27
484.89	0.27
485.244	0.27
485.598	0.27
485.953	0.26
486.307	0.26
486.661	0.27
487.016	0.25
487.37	0.25
487.724	0.24
488.078	0.24
488.432	0.25
488.786	0.24
489.14	0.24
489.494	0.23
489.848	0.23
490.202	0.23
490.556	0.23
490.91	0.22
491.263	0.22
491.617	0.23
491.971	0.22
492.324	0.21
492.678	0.22
493.031	0.22
493.385	0.21
493.738	0.21
494.091	0.21
494.445	0.21
494.798	0.21
495.151	0.2
495.504	0.2
495.857	0.2
496.21	0.2
496.564	0.19
496.916	0.21
497.269	0.19
497.622	0.2
497.975	0.19
498.328	0.2
498.681	0.19
499.033	0.19
499.386	0.19
499.739	0.19
500.091	0.19
500.444	0.19
500.796	0.19
501.149	0.18
501.501	0.18
501.854	0.18
502.206	0.18
502.558	0.19
502.91	0.18
503.263	0.18
503.615	0.18
503.967	0.17
504.319	0.18
504.671	0.17
505.023	0.18
505.375	0.17
505.726	0.17
506.078	0.18
506.43	0.16
506.782	0.17
507.133	0.17
507.485	0.18
507.837	0.18
508.188	0.17
508.54	0.17
508.891	0.18
509.243	0.17
509.594	0.18
509.945	0.17
510.296	0.16
510.648	0.17
510.999	0.16
511.35	0.16
511.701	0.16
512.052	0.17
512.403	0.17
512.754	0.16
513.105	0.17
513.456	0.15
513.807	0.16
514.157	0.17
514.508	0.17
514.859	0.16
515.209	0.16
515.56	0.17
515.91	0.16
516.261	0.17
516.611	0.16
516.962	0.16
517.312	0.16
517.662	0.16
518.013	0.16
518.363	0.16
518.713	0.17
519.063	0.16
519.413	0.17
519.763	0.16
520.113	0.17
520.463	0.17
520.813	0.17
521.163	0.17
521.512	0.16
521.862	0.17
522.212	0.17
522.562	0.17
522.911	0.17
523.261	0.16
523.61	0.17
523.96	0.16
524.309	0.17
524.658	0.16
525.008	0.16
525.357	0.17
525.706	0.17
526.056	0.16
526.405	0.17
526.754	0.17
527.103	0.17
527.452	0.17
527.801	0.17
528.15	0.17
528.499	0.16
528.847	0.17
529.196	0.18
529.545	0.17
529.893	0.17
530.242	0.17
530.591	0.17
530.939	0.18
531.288	0.17
531.636	0.18
531.985	0.18
532.333	0.17
532.681	0.17
533.029	0.18
533.378	0.18
533.726	0.18
534.074	0.18
534.422	0.18
534.77	0.18
535.118	0.17
535.466	0.18
535.814	0.18
536.162	0.18
536.509	0.18
536.857	0.17
537.205	0.18
537.552	0.18
537.9	0.18
538.248	0.17
538.595	0.18
538.943	0.18
539.29	0.18
539.637	0.19
539.985	0.18
540.332	0.18
540.679	0.18
541.026	0.17
541.373	0.18
541.721	0.17
542.068	0.17
542.415	0.17
542.762	0.16
543.108	0.17
543.455	0.16
543.802	0.17
544.149	0.17
544.496	0.17
544.842	0.16
545.189	0.16
545.535	0.17
545.882	0.17
546.228	0.17
546.575	0.17
546.921	0.17
547.267	0.17
547.614	0.17
547.96	0.16
548.306	0.17
548.652	0.17
548.998	0.17
549.344	0.17
549.69	0.17
550.036	0.16
550.382	0.17
550.728	0.17
551.074	0.18
551.42	0.17
551.765	0.17
552.111	0.17
552.457	0.18
552.802	0.17
553.148	0.16
553.493	0.17
553.839	0.17
554.184	0.18
554.529	0.17
554.875	0.18
555.22	0.18
555.565	0.17
555.91	0.18
556.255	0.18
556.6	0.18
556.945	0.17
557.29	0.17
557.635	0.18
557.98	0.18
558.325	0.17
558.67	0.18
559.014	0.18
559.359	0.18
559.704	0.18
560.048	0.17
560.393	0.17
560.737	0.17
561.082	0.17
561.426	0.17
561.77	0.18
562.115	0.18
562.459	0.17
562.803	0.18
563.147	0.17
563.491	0.18
563.835	0.18
564.179	0.18
564.523	0.17
564.867	0.17
565.211	0.18
565.555	0.18
565.899	0.19
566.242	0.18
566.586	0.17
566.93	0.18
567.273	0.19
567.617	0.18
567.96	0.19
568.304	0.18
568.647	0.19
568.99	0.18
569.334	0.18
569.677	0.18
570.02	0.18
570.363	0.18
570.706	0.18
571.049	0.18
571.392	0.18
571.735	0.18
572.078	0.19
572.421	0.19
572.764	0.18
573.106	0.18
573.449	0.18
573.792	0.17
574.134	0.17
574.477	0.18
574.819	0.18
575.162	0.18
575.504	0.18
575.847	0.17
576.189	0.18
576.531	0.17
576.873	0.18
577.215	0.18
577.558	0.18
577.9	0.18
578.242	0.18
578.584	0.18
578.926	0.18
579.267	0.18
579.609	0.18
579.951	0.18
580.293	0.18
580.634	0.18
580.976	0.18
581.318	0.18
581.659	0.18
582.001	0.18
582.342	0.18
582.683	0.19
583.025	0.17
583.366	0.17
583.707	0.18
584.049	0.18
584.39	0.18
584.731	0.17
585.072	0.17
585.413	0.18
585.754	0.18
586.095	0.18
586.435	0.18
586.776	0.18
587.117	0.18
587.458	0.18
587.798	0.18
588.139	0.18
588.48	0.17
588.82	0.18
589.161	0.18
589.501	0.17
589.841	0.18
590.182	0.17
590.522	0.17
590.862	0.18
591.202	0.18
591.542	0.17
591.882	0.17
592.222	0.17
592.562	0.18
592.902	0.18
593.242	0.17
593.582	0.18
593.922	0.18
594.261	0.17
594.601	0.17
594.941	0.17
595.28	0.18
595.62	0.17
595.959	0.17
596.299	0.18
596.638	0.18
596.977	0.17
597.317	0.17
597.656	0.17
597.995	0.18
598.334	0.18
598.673	0.18
599.012	0.18
599.351	0.18
599.69	0.18
600.029	0.18
600.368	0.18
600.707	0.18
601.046	0.17
601.384	0.18
601.723	0.18
602.061	0.17
602.4	0.18
602.738	0.18
603.077	0.17
603.415	0.17
603.754	0.18
604.092	0.18
604.43	0.18
604.768	0.17
605.107	0.17
605.445	0.17
605.783	0.17
606.121	0.17
606.459	0.17
606.796	0.18
607.134	0.16
607.472	0.17
607.81	0.17
608.148	0.16
608.485	0.17
608.823	0.18
609.16	0.17
609.498	0.17
609.835	0.17
610.173	0.17
610.51	0.18
610.847	0.17
611.185	0.18
611.522	0.18
611.859	0.18
612.196	0.18
612.533	0.18
612.87	0.19
613.207	0.18
613.544	0.18
613.881	0.19
614.217	0.18
614.554	0.18
614.891	0.18
615.228	0.18
615.564	0.19
615.901	0.18
616.237	0.18
616.574	0.18
616.91	0.18
617.246	0.19
617.583	0.18
617.919	0.18
618.255	0.18
618.591	0.18
618.927	0.18
619.263	0.18
619.599	0.18
619.935	0.18
620.271	0.18
620.607	0.18
620.943	0.17
621.279	0.18
621.614	0.17
621.95	0.18
622.286	0.18
622.621	0.18
622.957	0.17
623.292	0.17
623.627	0.17
623.963	0.17
624.298	0.17
624.633	0.16
624.968	0.16
625.304	0.17
625.639	0.16
625.974	0.16
626.309	0.16
626.644	0.17
626.979	0.17
627.313	0.16
627.648	0.16
627.983	0.17
628.318	0.16
628.652	0.16
628.987	0.16
629.321	0.16
629.656	0.15
629.99	0.16
630.325	0.15
630.659	0.16
630.993	0.16
631.327	0.16
631.662	0.15
631.996	0.15
632.33	0.16
632.664	0.16
632.998	0.15
633.332	0.15
633.666	0.16
633.999	0.16
634.333	0.15
634.667	0.16
635.001	0.16
635.334	0.15
635.668	0.15
636.001	0.15
636.335	0.16
636.668	0.15
637.001	0.14
637.335	0.15
637.668	0.15
638.001	0.14
638.334	0.14
638.668	0.15
639.001	0.15
639.334	0.15
639.667	0.15
639.999	0.15
640.332	0.15
640.665	0.15
640.998	0.15
641.331	0.15
641.663	0.14
641.996	0.14
642.328	0.15
642.661	0.15
642.993	0.15
643.326	0.15
643.658	0.14
643.99	0.14
644.323	0.14
644.655	0.14
644.987	0.14
645.319	0.15
645.651	0.14
645.983	0.14
646.315	0.14
646.647	0.14
646.979	0.15
647.31	0.14
647.642	0.14
647.974	0.14
648.305	0.15
648.637	0.14
648.968	0.14
649.3	0.15
649.631	0.15
649.963	0.14
650.294	0.15
650.625	0.14
650.957	0.15
651.288	0.14
651.619	0.15
651.95	0.15
652.281	0.14
652.612	0.14
652.943	0.15
653.274	0.16
653.604	0.15
653.935	0.14
654.266	0.15
654.596	0.15
654.927	0.14
655.258	0.15
655.588	0.15
655.918	0.15
656.249	0.13
656.579	0.13
656.909	0.14
657.24	0.14
657.57	0.15
657.9	0.15
658.23	0.15
658.56	0.16
658.89	0.15
659.22	0.15
659.55	0.14
659.88	0.15
660.209	0.15
660.539	0.16
660.869	0.15
661.198	0.15
661.528	0.15
661.857	0.14
662.187	0.16
662.516	0.15
662.846	0.15
663.175	0.14
663.504	0.15
663.833	0.14
664.163	0.14
664.492	0.14
664.821	0.14
665.15	0.14
665.479	0.14
665.807	0.14
666.136	0.14
666.465	0.14
666.794	0.14
667.122	0.13
667.451	0.14
667.78	0.14
668.108	0.13
668.437	0.14
668.765	0.13
669.093	0.14
669.422	0.13
669.75	0.14
670.078	0.13
670.406	0.13
670.734	0.13
671.062	0.14
671.39	0.14
671.718	0.14
672.046	0.13
672.374	0.13
672.702	0.13
673.029	0.13
673.357	0.13
673.685	0.14
674.012	0.13
674.34	0.13
674.667	0.14
674.995	0.13
675.322	0.13
675.649	0.12
675.977	0.13
676.304	0.13
676.631	0.13
676.958	0.13
677.285	0.12
677.612	0.13
677.939	0.13
678.266	0.14
678.593	0.13
678.92	0.13
679.246	0.12
679.573	0.13
679.9	0.12
680.226	0.13
680.553	0.12
680.879	0.13
681.206	0.13
681.532	0.12
681.858	0.13
682.184	0.13
682.511	0.12
682.837	0.12
683.163	0.13
683.489	0.13
683.815	0.12
684.141	0.12
684.467	0.12
684.793	0.12
685.118	0.12
685.444	0.12
685.77	0.12
686.095	0.12
686.421	0.12
686.746	0.12
687.072	0.12
687.397	0.12
687.723	0.13
688.048	0.13
688.373	0.12
688.698	0.12
689.023	0.13
689.349	0.12
689.674	0.12
689.999	0.12
690.323	0.11
690.648	0.12
690.973	0.11
691.298	0.12
691.623	0.12
691.947	0.12
692.272	0.11
692.596	0.12
692.921	0.12
693.245	0.12
693.57	0.12
693.894	0.11
694.218	0.12
694.543	0.11
694.867	0.12
695.191	0.11
695.515	0.12
695.839	0.11
696.163	0.11
696.487	0.11
696.811	0.11
697.135	0.12
697.458	0.11
697.782	0.11
698.106	0.11
698.429	0.11
698.753	0.11
699.076	0.1
699.4	0.11
699.723	0.11
700.046	0.11
700.37	0.11
700.693	0.11
701.016	0.12
701.339	0.11
701.662	0.12
701.985	0.12
702.308	0.11
702.631	0.11
702.954	0.12
703.277	0.11
703.599	0.11
703.922	0.11
704.245	0.11
704.567	0.1
704.89	0.1
705.212	0.11
705.535	0.1
705.857	0.1
706.179	0.1
706.502	0.09
706.824	0.1
707.146	0.09
707.468	0.1
707.79	0.09
708.112	0.1
708.434	0.09
708.756	0.1
709.078	0.1
709.399	0.1
709.721	0.09
710.043	0.11
710.364	0.1
710.686	0.1
711.007	0.1
711.329	0.11
711.65	0.1
711.972	0.1
712.293	0.1
712.614	0.1
712.935	0.1
713.256	0.1
713.577	0.11
713.898	0.1
714.219	0.1
714.54	0.09
714.861	0.09
715.182	0.1
715.503	0.09
715.823	0.09
716.144	0.09
716.464	0.09
716.785	0.09
717.105	0.09
717.426	0.09
717.746	0.09
718.066	0.08
718.387	0.08
718.707	0.08
719.027	0.09
719.347	0.07
719.667	0.08
719.987	0.08
720.307	0.08
720.627	0.08
720.947	0.09
721.266	0.09
721.586	0.08
721.906	0.08
722.225	0.08
722.545	0.08
722.864	0.08
723.184	0.09
723.503	0.09
723.823	0.09
724.142	0.08
724.461	0.08
724.78	0.07
725.099	0.08
725.418	0.08
725.737	0.08
726.056	0.08
726.375	0.08
726.694	0.08
727.013	0.08
727.331	0.07
727.65	0.08
727.969	0.09
728.287	0.09
728.606	0.08
728.924	0.08
729.242	0.09
729.561	0.08
729.879	0.08
730.197	0.08
730.515	0.07
730.834	0.08
731.152	0.08
731.47	0.08
731.788	0.08
732.105	0.08
732.423	0.08
732.741	0.07
733.059	0.08
733.376	0.08
733.694	0.08
734.012	0.08
734.329	0.09
734.647	0.07
734.964	0.08
735.281	0.08
735.599	0.08
735.916	0.08
736.233	0.07
736.55	0.07
736.867	0.08
737.184	0.08
737.501	0.08
737.818	0.08
738.135	0.08
738.452	0.08
738.768	0.08
739.085	0.07
739.402	0.06
739.718	0.08
740.035	0.07
740.351	0.08
740.668	0.08
740.984	0.07
741.3	0.07
741.617	0.08
741.933	0.08
742.249	0.09
742.565	0.07
742.881	0.09
743.197	0.07
743.513	0.07
743.829	0.07
744.144	0.07
744.46	0.07
744.776	0.07
745.091	0.07
745.407	0.07
745.722	0.07
746.038	0.06
746.353	0.05
746.669	0.07
746.984	0.07
747.299	0.07
747.614	0.07
747.93	0.07
748.245	0.06
748.56	0.07
748.875	0.07
749.189	0.06
749.504	0.07
749.819	0.07
750.134	0.07
750.448	0.08
750.763	0.07
751.078	0.06
751.392	0.07
751.707	0.09
752.021	0.08
752.335	0.08
752.65	0.08
752.964	0.07
753.278	0.07
753.592	0.07
753.906	0.06
754.22	0.07
754.534	0.08
754.848	0.08
755.162	0.06
755.476	0.08
755.789	0.07
756.103	0.07
756.417	0.07
756.73	0.07
757.044	0.08
757.357	0.07
757.671	0.08
757.984	0.07
758.297	0.08
758.61	0.07
758.924	0.08
759.237	0.06
759.55	0.07
759.863	0.07
760.176	0.07
760.488	0.07
760.801	0.07
761.114	0.07
761.427	0.07
761.739	0.07
762.052	0.07
762.365	0.07
762.677	0.06
762.99	0.06
763.302	0.06
763.614	0.07
763.926	0.07
764.239	0.06
764.551	0.06
764.863	0.06
765.175	0.07
765.487	0.06
765.799	0.06
766.111	0.05
766.423	0.07
766.734	0.06
767.046	0.06
767.358	0.06
767.669	0.07
767.981	0.07
768.292	0.06
768.604	0.06
768.915	0.06
769.226	0.06
769.537	0.05
769.849	0.06
770.16	0.05
770.471	0.05
770.782	0.06
771.093	0.05
771.404	0.05
771.715	0.05
772.025	0.05
772.336	0.05
772.647	0.04
772.957	0.06
773.268	0.06
773.578	0.05
773.889	0.06
774.199	0.06
774.51	0.05
774.82	0.06
775.13	0.05
775.44	0.06
775.75	0.06
776.06	0.06
776.37	0.05
776.68	0.06
776.99	0.06
777.3	0.05
777.61	0.06
777.92	0.06
778.229	0.05
778.539	0.06
778.848	0.05
779.158	0.06
779.467	0.05
779.777	0.06
780.086	0.07
780.395	0.06
780.704	0.06
781.013	0.05
781.323	0.05
781.632	0.05
781.941	0.06
782.249	0.05
782.558	0.05
782.867	0.06
783.176	0.05
783.485	0.05
783.793	0.06
784.102	0.05
784.41	0.05
784.719	0.05
785.027	0.05
785.335	0.05
785.644	0.05
785.952	0.05
786.26	0.05
786.568	0.04
786.876	0.04
787.184	0.05
787.492	0.06
787.8	0.04
788.108	0.05
788.416	0.05
788.723	0.05
789.031	0.05
789.338	0.05
789.646	0.04
789.953	0.06
790.261	0.05
790.568	0.05
790.876	0.05
791.183	0.06
791.49	0.05
791.797	0.06
792.104	0.05
792.411	0.06
792.718	0.05
793.025	0.06
793.332	0.05
793.639	0.07
793.945	0.06
794.252	0.06
794.559	0.06
794.865	0.06
795.172	0.06
795.478	0.06
795.784	0.07
796.091	0.06
796.397	0.07
796.703	0.06
797.009	0.07
797.315	0.06
797.622	0.07
797.927	0.05
798.233	0.05
798.539	0.07
798.845	0.06
799.151	0.06
799.456	0.06
799.762	0.05
800.068	0.06
800.373	0.07
800.679	0.06
800.984	0.06
801.289	0.06
801.595	0.06
801.9	0.05
802.205	0.05
802.51	0.06
802.815	0.07
803.12	0.05
803.425	0.06
803.73	0.06
804.035	0.05
804.339	0.05
804.644	0.05
804.949	0.06
805.253	0.05
805.558	0.05
805.862	0.05
806.167	0.05
806.471	0.05
806.775	0.05
807.08	0.05
807.384	0.05
807.688	0.05
807.992	0.05
808.296	0.05
808.6	0.05
808.904	0.06
809.207	0.05
809.511	0.06
809.815	0.07
810.119	0.06
810.422	0.06
810.726	0.07
811.029	0.08
811.332	0.07
811.636	0.07
811.939	0.07
812.242	0.07
812.546	0.07
812.849	0.07
813.152	0.08
813.455	0.07
813.758	0.07
814.06	0.06
814.363	0.06
814.666	0.07
814.969	0.07
815.271	0.07
815.574	0.06
815.877	0.06
816.179	0.06
816.481	0.06
816.784	0.06
817.086	0.05
817.388	0.05
817.69	0.05
817.993	0.05
818.295	0.05
818.597	0.05
818.899	0.05
819.2	0.04
819.502	0.05
819.804	0.05
820.106	0.05
820.407	0.04
820.709	0.05
821.01	0.05
821.312	0.05
821.613	0.04
821.915	0.04
822.216	0.04
822.517	0.04
822.818	0.04
823.119	0.04
823.42	0.04
823.721	0.04
824.022	0.03
824.323	0.04
824.624	0.04
824.925	0.05
825.226	0.05
825.526	0.03
825.827	0.04
826.127	0.05
826.428	0.04
826.728	0.04
827.028	0.04
827.329	0.04
827.629	0.04
827.929	0.04
828.229	0.04
828.529	0.05
828.829	0.04
829.129	0.04
829.429	0.04
829.729	0.04
830.029	0.04
830.328	0.04
830.628	0.03
830.927	0.03
831.227	0.03
831.526	0.03
831.826	0.03
832.125	0.03
832.424	0.03
832.724	0.03
833.023	0.03
833.322	0.03
833.621	0.03
833.92	0.02
834.219	0.02
834.518	0.04
834.816	0.01
835.115	0.02
835.414	0.02
835.712	0.02
836.011	0.01
836.309	0.02
836.608	0.01
836.906	0.01
837.205	0.01
837.503	0
837.801	0.01
838.099	0
838.397	-0.01
838.695	-0
838.993	-0
839.291	-0
839.589	-0
839.887	-0
840.184	-0
840.482	-0.01
840.78	-0
841.077	-0
841.375	-0.01
841.672	-0.01
841.969	-0.01
842.267	-0.01
842.564	-0.01
842.861	0
843.158	-0.02
843.455	-0.03
843.752	-0.02
844.049	-0.02
844.346	-0.02
844.643	-0.02
844.94	-0.02
845.236	-0.02
845.533	-0.03
845.83	-0.03
846.126	-0.03
846.423	-0.03
846.719	-0.04
847.015	-0.03
847.312	-0.04
847.608	-0.04
847.904	-0.04
848.2	-0.05
848.496	-0.05
848.792	-0.04
849.088	-0.03
849.384	-0.04
849.68	-0.05
849.975	-0.04
850.271	-0.05
850.567	-0.05
850.862	-0.06
851.158	-0.05
851.453	-0.05
851.748	-0.07
852.044	-0.06
852.339	-0.06
852.634	-0.07
852.929	-0.06
853.224	-0.08
853.519	-0.06
853.814	-0.07
854.109	-0.07
854.404	-0.07
854.699	-0.07
854.994	-0.06
855.288	-0.07
855.583	-0.07
855.877	-0.07
856.172	-0.07
856.466	-0.08
856.76	-0.08
857.055	-0.08
857.349	-0.1
857.643	-0.09
857.937	-0.09
858.231	-0.1
858.525	-0.1
858.819	-0.1
859.113	-0.1
859.407	-0.11
859.701	-0.09
859.994	-0.11
860.288	-0.09
860.581	-0.1
860.875	-0.1
861.168	-0.1
861.462	-0.11
861.755	-0.09
862.048	-0.1
862.341	-0.1
862.634	-0.1
862.928	-0.1
863.221	-0.1
863.513	-0.12
863.806	-0.11
864.099	-0.11
864.392	-0.11
864.685	-0.11
864.977	-0.11
865.27	-0.12
865.562	-0.11
865.855	-0.1
866.147	-0.11
866.44	-0.11
866.732	-0.12
867.024	-0.13
867.316	-0.12
867.608	-0.12
867.9	-0.12
868.192	-0.13
868.484	-0.12
868.776	-0.14
869.068	-0.13
869.359	-0.13
869.651	-0.14
869.943	-0.16
870.234	-0.14
870.526	-0.15
870.817	-0.16
871.108	-0.13
871.4	-0.14
871.691	-0.15
871.982	-0.16
872.273	-0.17
872.564	-0.15
872.855	-0.16
873.146	-0.16
873.437	-0.17
873.728	-0.17
874.019	-0.16
874.309	-0.16
874.6	-0.16
874.89	-0.16
875.181	-0.16
875.471	-0.15
875.762	-0.16
876.052	-0.16
876.342	-0.15
876.632	-0.16
876.922	-0.17
877.213	-0.16
877.503	-0.16
877.792	-0.16
878.082	-0.18
878.372	-0.15
878.662	-0.17
878.952	-0.18
879.241	-0.17
879.531	-0.17
879.82	-0.17
880.11	-0.16
880.399	-0.17
880.688	-0.16
880.978	-0.16
881.267	-0.16
