Data from 12-12-AQDScycling_Absorbance__913__00913.txt Node

Date: Tue Dec 12 14:44:59 EST 2023
User: kyuminlee
Spectrometer: FLMS00943
Trigger mode: 0
Integration Time (sec): 1.000000E-1
Scans to average: 1
Electric dark correction enabled: true
Nonlinearity correction enabled: false
Boxcar width: 0
XAxis mode: Wavelengths
Number of Pixels in Spectrum: 2048
>>>>>Begin Spectral Data<<<<<
179.651	-0
180.037	-0
180.424	-0
180.81	-0
181.197	0.14
181.583	-0
181.97	-0.02
182.356	-0.55
182.743	-0
183.129	0.51
183.515	0.02
183.901	-0
184.288	-0.24
184.674	-0
185.06	-0
185.446	-0.31
185.832	-0
186.218	0.23
186.604	-0.46
186.99	-0.28
187.376	-0
187.762	-0
188.148	0.39
188.534	-0.27
188.92	0.04
189.305	0.04
189.691	0.13
190.077	0.05
190.463	0.08
190.848	0.02
191.234	-0
191.619	-0.02
192.005	0.31
192.391	0.11
192.776	0.05
193.161	0.01
193.547	0.05
193.932	-0.03
194.318	0.13
194.703	0.16
195.088	0.24
195.473	0.11
195.859	0.16
196.244	0.14
196.629	0.19
197.014	0.12
197.399	0.07
197.784	0.13
198.169	0.13
198.554	0.24
198.939	0
199.324	0.21
199.709	0.09
200.094	0.18
200.478	0.14
200.863	0.28
201.248	0.19
201.633	0.17
202.017	0.21
202.402	0.17
202.787	0.13
203.171	0.2
203.556	0.1
203.94	0.15
204.325	0.22
204.709	0.15
205.093	0.04
205.478	0.16
205.862	0.12
206.246	0.06
206.631	0.02
207.015	0.08
207.399	0.15
207.783	0.08
208.167	0.1
208.551	0.22
208.935	0.19
209.319	0.14
209.703	0.15
210.087	0.31
210.471	0.17
210.855	0.07
211.239	0.19
211.623	0.22
212.007	0.29
212.39	0.18
212.774	0.2
213.158	0.09
213.541	0.29
213.925	0.22
214.309	0.21
214.692	0.28
215.076	0.4
215.459	0.09
215.842	0.16
216.226	0.27
216.609	0.3
216.993	0.18
217.376	0.44
217.759	0.21
218.142	0.31
218.525	0.35
218.909	0.41
219.292	0.35
219.675	0.47
220.058	0.37
220.441	0.38
220.824	0.36
221.207	0.56
221.59	0.51
221.973	0.49
222.355	0.52
222.738	0.62
223.121	0.56
223.504	0.71
223.886	0.52
224.269	0.79
224.652	0.59
225.034	0.74
225.417	0.77
225.799	0.79
226.182	0.81
226.564	0.83
226.947	0.78
227.329	0.91
227.711	0.9
228.094	0.78
228.476	0.91
228.858	0.81
229.24	0.83
229.623	1.05
230.005	0.75
230.387	0.85
230.769	0.83
231.151	0.88
231.533	0.94
231.915	0.93
232.297	1.05
232.679	1.02
233.061	1.07
233.442	1.09
233.824	1.08
234.206	1.1
234.588	1.09
234.969	1.21
235.351	0.87
235.733	1.08
236.114	1.16
236.496	0.99
236.877	1.21
237.259	0.94
237.64	1.02
238.022	0.98
238.403	0.97
238.784	0.98
239.165	1.03
239.547	1.11
239.928	1.07
240.309	0.92
240.69	1.03
241.071	1.16
241.452	1.11
241.834	1.19
242.215	1.05
242.595	1.02
242.976	1.16
243.357	1.18
243.738	1.01
244.119	1.21
244.5	1.16
244.881	1.29
245.261	1.23
245.642	1.24
246.023	1.11
246.403	1.07
246.784	1.26
247.164	1.33
247.545	1.37
247.925	1.4
248.306	1.31
248.686	1.37
249.067	1.26
249.447	1.33
249.827	1.5
250.207	1.4
250.588	1.23
250.968	1.46
251.348	1.31
251.728	1.44
252.108	1.33
252.488	1.29
252.868	1.38
253.248	1.33
253.628	1.37
254.008	1.6
254.388	1.36
254.768	1.33
255.147	1.4
255.527	1.39
255.907	1.26
256.287	1.39
256.666	1.55
257.046	1.61
257.425	1.5
257.805	1.31
258.184	1.27
258.564	1.32
258.943	1.31
259.323	1.48
259.702	1.46
260.081	1.37
260.461	1.44
260.84	1.53
261.219	1.53
261.598	1.53
261.977	1.44
262.356	1.77
262.736	1.49
263.115	1.58
263.494	1.44
263.873	1.45
264.251	1.44
264.63	1.43
265.009	1.4
265.388	1.31
265.767	1.3
266.145	1.44
266.524	1.54
266.903	1.35
267.281	1.39
267.66	1.47
268.039	1.43
268.417	1.32
268.796	1.39
269.174	1.44
269.552	1.28
269.931	1.29
270.309	1.38
270.687	1.74
271.066	1.34
271.444	1.45
271.822	1.47
272.2	1.3
272.578	1.37
272.956	1.38
273.334	1.46
273.712	1.47
274.09	1.49
274.468	1.27
274.846	1.29
275.224	1.35
275.602	1.65
275.98	1.53
276.357	1.38
276.735	1.42
277.113	1.57
277.49	1.43
277.868	1.41
278.246	1.54
278.623	1.3
279.001	1.34
279.378	1.39
279.756	1.58
280.133	1.62
280.51	1.3
280.888	1.6
281.265	1.32
281.642	1.46
282.019	1.55
282.396	1.56
282.773	1.52
283.151	1.56
283.528	1.47
283.905	1.56
284.282	1.44
284.659	1.47
285.035	1.33
285.412	1.41
285.789	1.48
286.166	1.35
286.543	1.44
286.919	1.46
287.296	1.4
287.673	1.57
288.049	1.56
288.426	1.57
288.802	1.5
289.179	1.46
289.555	1.66
289.932	1.47
290.308	1.38
290.684	1.4
291.061	1.37
291.437	1.48
291.813	1.31
292.189	1.29
292.565	1.37
292.942	1.37
293.318	1.31
293.694	1.4
294.07	1.34
294.446	1.39
294.822	1.69
295.197	1.53
295.573	1.57
295.949	1.61
296.325	1.66
296.701	1.73
297.076	1.61
297.452	1.55
297.828	1.4
298.203	1.58
298.579	1.4
298.954	1.51
299.33	1.44
299.705	1.45
300.081	1.54
300.456	1.56
300.831	1.42
301.206	1.41
301.582	1.6
301.957	1.5
302.332	1.47
302.707	1.43
303.082	1.46
303.457	1.41
303.832	1.42
304.207	1.33
304.582	1.46
304.957	1.48
305.332	1.51
305.707	1.43
306.082	1.52
306.456	1.59
306.831	1.36
307.206	1.51
307.58	1.51
307.955	1.44
308.33	1.42
308.704	1.44
309.079	1.43
309.453	1.54
309.828	1.39
310.202	1.4
310.576	1.46
310.951	1.58
311.325	1.44
311.699	1.4
312.073	1.29
312.447	1.37
312.821	1.39
313.196	1.47
313.57	1.32
313.944	1.36
314.317	1.39
314.691	1.42
315.065	1.56
315.439	1.44
315.813	1.51
316.187	1.39
316.56	1.45
316.934	1.4
317.308	1.51
317.681	1.49
318.055	1.52
318.428	1.46
318.802	1.43
319.175	1.52
319.549	1.51
319.922	1.29
320.295	1.39
320.669	1.53
321.042	1.52
321.415	1.8
321.788	1.52
322.162	1.42
322.535	1.53
322.908	1.53
323.281	1.51
323.654	1.62
324.027	1.37
324.4	1.44
324.773	1.62
325.145	1.65
325.518	1.46
325.891	1.46
326.264	1.51
326.636	1.52
327.009	1.49
327.382	1.35
327.754	1.65
328.127	1.46
328.499	1.48
328.872	1.47
329.244	1.47
329.616	1.39
329.989	1.36
330.361	1.41
330.733	1.45
331.106	1.38
331.478	1.69
331.85	1.42
332.222	1.33
332.594	1.53
332.966	1.41
333.338	1.77
333.71	1.6
334.082	1.55
334.454	1.47
334.826	1.59
335.197	1.46
335.569	1.61
335.941	1.35
336.312	1.47
336.684	1.48
337.056	1.48
337.427	1.68
337.799	1.59
338.17	1.52
338.542	1.47
338.913	1.57
339.284	1.56
339.656	1.49
340.027	1.53
340.398	1.56
340.769	1.53
341.141	1.58
341.512	1.73
341.883	1.55
342.254	1.53
342.625	1.57
342.996	1.44
343.367	1.48
343.738	1.43
344.108	1.46
344.479	1.73
344.85	1.35
345.221	1.55
345.591	1.43
345.962	1.4
346.333	1.56
346.703	1.31
347.074	1.52
347.444	1.24
347.815	1.4
348.185	1.27
348.556	1.32
348.926	1.3
349.296	1.34
349.666	1.38
350.037	1.21
350.407	1.27
350.777	1.28
351.147	1.4
351.517	1.27
351.887	1.3
352.257	1.46
352.627	1.3
352.997	1.39
353.367	1.35
353.737	1.47
354.106	1.44
354.476	1.32
354.846	1.48
355.216	1.4
355.585	1.43
355.955	1.32
356.324	1.43
356.694	1.33
357.063	1.28
357.433	1.35
357.802	1.39
358.171	1.32
358.541	1.37
358.91	1.43
359.279	1.38
359.648	1.32
360.017	1.36
360.387	1.34
360.756	1.27
361.125	1.3
361.494	1.28
361.863	1.19
362.231	1.28
362.6	1.27
362.969	1.33
363.338	1.3
363.707	1.37
364.075	1.37
364.444	1.17
364.813	1.25
365.181	1.23
365.55	1.26
365.918	1.3
366.287	1.29
366.655	1.36
367.024	1.23
367.392	1.26
367.76	1.28
368.128	1.26
368.497	1.2
368.865	1.2
369.233	1.28
369.601	1.23
369.969	1.22
370.337	1.28
370.705	1.33
371.073	1.27
371.441	1.31
371.809	1.21
372.177	1.22
372.544	1.29
372.912	1.28
373.28	1.22
373.647	1.32
374.015	1.3
374.383	1.39
374.75	1.31
375.118	1.27
375.485	1.27
375.853	1.32
376.22	1.29
376.587	1.29
376.955	1.33
377.322	1.31
377.689	1.27
378.056	1.28
378.423	1.3
378.79	1.25
379.157	1.31
379.524	1.3
379.891	1.29
380.258	1.34
380.625	1.3
380.992	1.31
381.359	1.32
381.726	1.35
382.092	1.29
382.459	1.34
382.826	1.34
383.192	1.4
383.559	1.32
383.925	1.37
384.292	1.33
384.658	1.43
385.025	1.42
385.391	1.5
385.757	1.5
386.123	1.33
386.49	1.4
386.856	1.42
387.222	1.48
387.588	1.41
387.954	1.56
388.32	1.49
388.686	1.45
389.052	1.44
389.418	1.38
389.784	1.37
390.15	1.58
390.515	1.34
390.881	1.55
391.247	1.38
391.613	1.48
391.978	1.36
392.344	1.49
392.709	1.54
393.075	1.47
393.44	1.43
393.806	1.5
394.171	1.38
394.536	1.41
394.902	1.48
395.267	1.38
395.632	1.28
395.997	1.49
396.362	1.36
396.727	1.46
397.092	1.41
397.457	1.5
397.822	1.38
398.187	1.4
398.552	1.45
398.917	1.41
399.282	1.34
399.646	1.42
400.011	1.4
400.376	1.31
400.74	1.39
401.105	1.38
401.47	1.41
401.834	1.36
402.199	1.32
402.563	1.37
402.927	1.33
403.292	1.45
403.656	1.41
404.02	1.35
404.384	1.35
404.749	1.25
405.113	1.35
405.477	1.37
405.841	1.27
406.205	1.41
406.569	1.28
406.933	1.19
407.296	1.2
407.66	1.32
408.024	1.31
408.388	1.3
408.752	1.29
409.115	1.32
409.479	1.29
409.842	1.26
410.206	1.22
410.569	1.22
410.933	1.19
411.296	1.2
411.66	1.24
412.023	1.15
412.386	1.19
412.749	1.1
413.113	1.17
413.476	1.14
413.839	1.1
414.202	1.12
414.565	1.12
414.928	1.1
415.291	1.08
415.654	1.09
416.017	1.14
416.38	1.14
416.742	1.12
417.105	1.04
417.468	1.09
417.83	1.11
418.193	1.08
418.556	1.11
418.918	1.05
419.281	1.11
419.643	1.15
420.005	1.07
420.368	1.11
420.73	1.06
421.092	1.03
421.455	1.1
421.817	1.01
422.179	1.04
422.541	1.03
422.903	1.08
423.265	1.1
423.627	1.03
423.989	1.05
424.351	1.04
424.713	0.99
425.075	1.02
425.436	0.99
425.798	1.01
426.16	1.04
426.521	1.01
426.883	1.06
427.245	1.04
427.606	0.98
427.967	0.99
428.329	1
428.69	1.03
429.052	0.95
429.413	1
429.774	1.01
430.135	1.03
430.497	0.99
430.858	0.99
431.219	1.01
431.58	0.95
431.941	0.96
432.302	0.96
432.663	0.98
433.024	1
433.384	0.96
433.745	0.96
434.106	0.99
434.467	0.92
434.827	0.95
435.188	0.95
435.548	0.97
435.909	0.94
436.269	0.95
436.63	0.91
436.99	0.9
437.351	0.89
437.711	0.92
438.071	0.92
438.431	0.89
438.792	0.88
439.152	0.92
439.512	0.88
439.872	0.89
440.232	0.93
440.592	0.88
440.952	0.87
441.312	0.86
441.671	0.87
442.031	0.86
442.391	0.85
442.751	0.89
443.11	0.86
443.47	0.84
443.83	0.82
444.189	0.84
444.549	0.83
444.908	0.82
445.267	0.81
445.627	0.83
445.986	0.79
446.345	0.79
446.705	0.79
447.064	0.79
447.423	0.78
447.782	0.78
448.141	0.79
448.5	0.75
448.859	0.78
449.218	0.76
449.577	0.78
449.936	0.78
450.295	0.76
450.653	0.75
451.012	0.74
451.371	0.74
451.729	0.75
452.088	0.75
452.447	0.73
452.805	0.73
453.163	0.73
453.522	0.72
453.88	0.7
454.239	0.72
454.597	0.7
454.955	0.68
455.313	0.68
455.671	0.69
456.029	0.68
456.388	0.67
456.746	0.67
457.104	0.65
457.461	0.64
457.819	0.64
458.177	0.63
458.535	0.62
458.893	0.62
459.25	0.61
459.608	0.61
459.966	0.6
460.323	0.6
460.681	0.58
461.038	0.58
461.396	0.58
461.753	0.57
462.111	0.57
462.468	0.54
462.825	0.55
463.182	0.54
463.54	0.54
463.897	0.54
464.254	0.53
464.611	0.53
464.968	0.51
465.325	0.52
465.682	0.5
466.039	0.51
466.395	0.49
466.752	0.49
467.109	0.48
467.466	0.48
467.822	0.48
468.179	0.47
468.535	0.46
468.892	0.46
469.248	0.45
469.605	0.44
469.961	0.44
470.318	0.45
470.674	0.43
471.03	0.43
471.386	0.42
471.743	0.42
472.099	0.4
472.455	0.41
472.811	0.39
473.167	0.39
473.523	0.38
473.879	0.38
474.235	0.39
474.59	0.38
474.946	0.37
475.302	0.37
475.657	0.36
476.013	0.35
476.369	0.34
476.724	0.36
477.08	0.36
477.435	0.34
477.791	0.34
478.146	0.34
478.501	0.34
478.857	0.33
479.212	0.32
479.567	0.32
479.922	0.31
480.277	0.31
480.632	0.3
480.987	0.3
481.342	0.3
481.697	0.29
482.052	0.29
482.407	0.28
482.762	0.28
483.116	0.28
483.471	0.27
483.826	0.26
484.18	0.26
484.535	0.26
484.89	0.26
485.244	0.26
485.598	0.26
485.953	0.25
486.307	0.24
486.661	0.25
487.016	0.24
487.37	0.24
487.724	0.24
488.078	0.24
488.432	0.23
488.786	0.23
489.14	0.22
489.494	0.22
489.848	0.22
490.202	0.22
490.556	0.22
490.91	0.22
491.263	0.21
491.617	0.21
491.971	0.21
492.324	0.21
492.678	0.21
493.031	0.21
493.385	0.2
493.738	0.2
494.091	0.2
494.445	0.21
494.798	0.2
495.151	0.19
495.504	0.2
495.857	0.2
496.21	0.19
496.564	0.19
496.916	0.2
497.269	0.19
497.622	0.19
497.975	0.19
498.328	0.19
498.681	0.18
499.033	0.19
499.386	0.18
499.739	0.18
500.091	0.18
500.444	0.18
500.796	0.18
501.149	0.17
501.501	0.18
501.854	0.17
502.206	0.18
502.558	0.18
502.91	0.18
503.263	0.17
503.615	0.17
503.967	0.17
504.319	0.17
504.671	0.17
505.023	0.16
505.375	0.16
505.726	0.17
506.078	0.17
506.43	0.16
506.782	0.16
507.133	0.17
507.485	0.17
507.837	0.18
508.188	0.17
508.54	0.17
508.891	0.17
509.243	0.17
509.594	0.17
509.945	0.16
510.296	0.17
510.648	0.17
510.999	0.16
511.35	0.16
511.701	0.16
512.052	0.17
512.403	0.17
512.754	0.16
513.105	0.17
513.456	0.16
513.807	0.15
514.157	0.17
514.508	0.16
514.859	0.16
515.209	0.16
515.56	0.16
515.91	0.16
516.261	0.17
516.611	0.16
516.962	0.17
517.312	0.16
517.662	0.17
518.013	0.16
518.363	0.17
518.713	0.17
519.063	0.16
519.413	0.16
519.763	0.16
520.113	0.16
520.463	0.17
520.813	0.17
521.163	0.17
521.512	0.17
521.862	0.17
522.212	0.17
522.562	0.17
522.911	0.17
523.261	0.17
523.61	0.16
523.96	0.17
524.309	0.17
524.658	0.16
525.008	0.17
525.357	0.17
525.706	0.17
526.056	0.16
526.405	0.17
526.754	0.16
527.103	0.16
527.452	0.16
527.801	0.17
528.15	0.17
528.499	0.17
528.847	0.17
529.196	0.18
529.545	0.18
529.893	0.18
530.242	0.17
530.591	0.17
530.939	0.19
531.288	0.18
531.636	0.18
531.985	0.17
532.333	0.18
532.681	0.18
533.029	0.18
533.378	0.18
533.726	0.18
534.074	0.18
534.422	0.17
534.77	0.18
535.118	0.17
535.466	0.18
535.814	0.17
536.162	0.18
536.509	0.19
536.857	0.18
537.205	0.18
537.552	0.18
537.9	0.19
538.248	0.17
538.595	0.18
538.943	0.18
539.29	0.18
539.637	0.18
539.985	0.18
540.332	0.18
540.679	0.17
541.026	0.17
541.373	0.18
541.721	0.18
542.068	0.17
542.415	0.18
542.762	0.18
543.108	0.17
543.455	0.17
543.802	0.18
544.149	0.17
544.496	0.18
544.842	0.18
545.189	0.17
545.535	0.17
545.882	0.17
546.228	0.16
546.575	0.17
546.921	0.16
547.267	0.17
547.614	0.17
547.96	0.17
548.306	0.17
548.652	0.17
548.998	0.17
549.344	0.17
549.69	0.17
550.036	0.17
550.382	0.17
550.728	0.17
551.074	0.18
551.42	0.18
551.765	0.17
552.111	0.18
552.457	0.18
552.802	0.18
553.148	0.17
553.493	0.18
553.839	0.17
554.184	0.18
554.529	0.17
554.875	0.18
555.22	0.18
555.565	0.18
555.91	0.19
556.255	0.18
556.6	0.18
556.945	0.18
557.29	0.18
557.635	0.18
557.98	0.18
558.325	0.18
558.67	0.18
559.014	0.19
559.359	0.18
559.704	0.18
560.048	0.16
560.393	0.18
560.737	0.17
561.082	0.17
561.426	0.17
561.77	0.18
562.115	0.17
562.459	0.17
562.803	0.17
563.147	0.18
563.491	0.18
563.835	0.18
564.179	0.18
564.523	0.18
564.867	0.17
565.211	0.18
565.555	0.18
565.899	0.19
566.242	0.18
566.586	0.17
566.93	0.18
567.273	0.19
567.617	0.18
567.96	0.18
568.304	0.19
568.647	0.19
568.99	0.19
569.334	0.19
569.677	0.18
570.02	0.19
570.363	0.19
570.706	0.18
571.049	0.19
571.392	0.19
571.735	0.19
572.078	0.19
572.421	0.19
572.764	0.19
573.106	0.19
573.449	0.19
573.792	0.18
574.134	0.19
574.477	0.19
574.819	0.18
575.162	0.18
575.504	0.18
575.847	0.18
576.189	0.19
576.531	0.18
576.873	0.17
577.215	0.18
577.558	0.19
577.9	0.17
578.242	0.18
578.584	0.18
578.926	0.18
579.267	0.19
579.609	0.18
579.951	0.18
580.293	0.18
580.634	0.19
580.976	0.19
581.318	0.18
581.659	0.18
582.001	0.19
582.342	0.18
582.683	0.18
583.025	0.17
583.366	0.18
583.707	0.19
584.049	0.18
584.39	0.18
584.731	0.18
585.072	0.17
585.413	0.19
585.754	0.18
586.095	0.18
586.435	0.18
586.776	0.18
587.117	0.18
587.458	0.18
587.798	0.19
588.139	0.18
588.48	0.18
588.82	0.17
589.161	0.18
589.501	0.17
589.841	0.17
590.182	0.17
590.522	0.18
590.862	0.18
591.202	0.18
591.542	0.17
591.882	0.17
592.222	0.18
592.562	0.18
592.902	0.17
593.242	0.18
593.582	0.18
593.922	0.18
594.261	0.17
594.601	0.17
594.941	0.18
595.28	0.18
595.62	0.18
595.959	0.18
596.299	0.18
596.638	0.18
596.977	0.18
597.317	0.18
597.656	0.18
597.995	0.17
598.334	0.18
598.673	0.18
599.012	0.18
599.351	0.19
599.69	0.19
600.029	0.19
600.368	0.18
600.707	0.19
601.046	0.19
601.384	0.19
601.723	0.19
602.061	0.18
602.4	0.18
602.738	0.19
603.077	0.18
603.415	0.18
603.754	0.19
604.092	0.18
604.43	0.18
604.768	0.18
605.107	0.18
605.445	0.18
605.783	0.18
606.121	0.17
606.459	0.18
606.796	0.18
607.134	0.17
607.472	0.17
607.81	0.17
608.148	0.17
608.485	0.18
608.823	0.17
609.16	0.17
609.498	0.18
609.835	0.17
610.173	0.17
610.51	0.18
610.847	0.18
611.185	0.17
611.522	0.17
611.859	0.18
612.196	0.18
612.533	0.18
612.87	0.18
613.207	0.18
613.544	0.18
613.881	0.18
614.217	0.18
614.554	0.18
614.891	0.18
615.228	0.18
615.564	0.18
615.901	0.18
616.237	0.18
616.574	0.18
616.91	0.19
617.246	0.19
617.583	0.18
617.919	0.19
618.255	0.19
618.591	0.18
618.927	0.19
619.263	0.19
619.599	0.19
619.935	0.19
620.271	0.18
620.607	0.19
620.943	0.18
621.279	0.19
621.614	0.18
621.95	0.18
622.286	0.18
622.621	0.18
622.957	0.17
623.292	0.17
623.627	0.17
623.963	0.17
624.298	0.17
624.633	0.17
624.968	0.17
625.304	0.17
625.639	0.18
625.974	0.17
626.309	0.16
626.644	0.17
626.979	0.18
627.313	0.18
627.648	0.18
627.983	0.18
628.318	0.17
628.652	0.17
628.987	0.17
629.321	0.17
629.656	0.16
629.99	0.16
630.325	0.17
630.659	0.16
630.993	0.16
631.327	0.16
631.662	0.15
631.996	0.16
632.33	0.16
632.664	0.16
632.998	0.16
633.332	0.16
633.666	0.16
633.999	0.15
634.333	0.15
634.667	0.16
635.001	0.15
635.334	0.15
635.668	0.15
636.001	0.15
636.335	0.15
636.668	0.15
637.001	0.15
637.335	0.16
637.668	0.15
638.001	0.14
638.334	0.15
638.668	0.15
639.001	0.15
639.334	0.14
639.667	0.15
639.999	0.15
640.332	0.15
640.665	0.15
640.998	0.15
641.331	0.15
641.663	0.15
641.996	0.15
642.328	0.15
642.661	0.15
642.993	0.15
643.326	0.16
643.658	0.15
643.99	0.15
644.323	0.15
644.655	0.15
644.987	0.16
645.319	0.15
645.651	0.16
645.983	0.15
646.315	0.15
646.647	0.16
646.979	0.16
647.31	0.16
647.642	0.16
647.974	0.16
648.305	0.16
648.637	0.16
648.968	0.16
649.3	0.15
649.631	0.16
649.963	0.15
650.294	0.16
650.625	0.15
650.957	0.16
651.288	0.16
651.619	0.15
651.95	0.15
652.281	0.15
652.612	0.15
652.943	0.15
653.274	0.16
653.604	0.15
653.935	0.15
654.266	0.15
654.596	0.15
654.927	0.15
655.258	0.15
655.588	0.16
655.918	0.15
656.249	0.13
656.579	0.15
656.909	0.14
657.24	0.15
657.57	0.15
657.9	0.15
658.23	0.14
658.56	0.15
658.89	0.15
659.22	0.14
659.55	0.15
659.88	0.15
660.209	0.15
660.539	0.16
660.869	0.16
661.198	0.15
661.528	0.15
661.857	0.15
662.187	0.15
662.516	0.15
662.846	0.15
663.175	0.14
663.504	0.15
663.833	0.14
664.163	0.14
664.492	0.14
664.821	0.14
665.15	0.14
665.479	0.14
665.807	0.14
666.136	0.14
666.465	0.14
666.794	0.14
667.122	0.14
667.451	0.14
667.78	0.15
668.108	0.14
668.437	0.14
668.765	0.15
669.093	0.14
669.422	0.14
669.75	0.15
670.078	0.14
670.406	0.14
670.734	0.15
671.062	0.14
671.39	0.14
671.718	0.15
672.046	0.14
672.374	0.14
672.702	0.14
673.029	0.14
673.357	0.14
673.685	0.14
674.012	0.14
674.34	0.14
674.667	0.14
674.995	0.14
675.322	0.14
675.649	0.14
675.977	0.14
676.304	0.14
676.631	0.14
676.958	0.13
677.285	0.13
677.612	0.13
677.939	0.13
678.266	0.14
678.593	0.14
678.92	0.14
679.246	0.13
679.573	0.13
679.9	0.13
680.226	0.13
680.553	0.12
680.879	0.13
681.206	0.14
681.532	0.13
681.858	0.13
682.184	0.14
682.511	0.13
682.837	0.14
683.163	0.14
683.489	0.14
683.815	0.14
684.141	0.13
684.467	0.14
684.793	0.13
685.118	0.13
685.444	0.14
685.77	0.13
686.095	0.13
686.421	0.13
686.746	0.13
687.072	0.12
687.397	0.13
687.723	0.13
688.048	0.13
688.373	0.12
688.698	0.13
689.023	0.13
689.349	0.12
689.674	0.12
689.999	0.12
690.323	0.11
690.648	0.11
690.973	0.11
691.298	0.11
691.623	0.12
691.947	0.11
692.272	0.11
692.596	0.12
692.921	0.12
693.245	0.12
693.57	0.13
693.894	0.12
694.218	0.12
694.543	0.12
694.867	0.12
695.191	0.12
695.515	0.12
695.839	0.12
696.163	0.13
696.487	0.12
696.811	0.12
697.135	0.12
697.458	0.12
697.782	0.12
698.106	0.11
698.429	0.12
698.753	0.11
699.076	0.11
699.4	0.11
699.723	0.12
700.046	0.11
700.37	0.12
700.693	0.12
701.016	0.11
701.339	0.12
701.662	0.12
701.985	0.12
702.308	0.11
702.631	0.11
702.954	0.11
703.277	0.12
703.599	0.11
703.922	0.11
704.245	0.11
704.567	0.11
704.89	0.1
705.212	0.11
705.535	0.1
705.857	0.1
706.179	0.1
706.502	0.1
706.824	0.1
707.146	0.1
707.468	0.11
707.79	0.11
708.112	0.11
708.434	0.1
708.756	0.1
709.078	0.1
709.399	0.1
709.721	0.1
710.043	0.11
710.364	0.11
710.686	0.11
711.007	0.1
711.329	0.11
711.65	0.11
711.972	0.1
712.293	0.11
712.614	0.11
712.935	0.11
713.256	0.11
713.577	0.11
713.898	0.11
714.219	0.1
714.54	0.1
714.861	0.09
715.182	0.11
715.503	0.1
715.823	0.11
716.144	0.1
716.464	0.1
716.785	0.1
717.105	0.1
717.426	0.1
717.746	0.1
718.066	0.09
718.387	0.1
718.707	0.09
719.027	0.1
719.347	0.09
719.667	0.1
719.987	0.09
720.307	0.09
720.627	0.09
720.947	0.09
721.266	0.09
721.586	0.08
721.906	0.09
722.225	0.09
722.545	0.09
722.864	0.09
723.184	0.09
723.503	0.09
723.823	0.09
724.142	0.09
724.461	0.09
724.78	0.09
725.099	0.1
725.418	0.09
725.737	0.09
726.056	0.1
726.375	0.09
726.694	0.1
727.013	0.09
727.331	0.09
727.65	0.08
727.969	0.09
728.287	0.1
728.606	0.09
728.924	0.08
729.242	0.09
729.561	0.09
729.879	0.09
730.197	0.1
730.515	0.08
730.834	0.08
731.152	0.09
731.47	0.09
731.788	0.09
732.105	0.09
732.423	0.09
732.741	0.09
733.059	0.09
733.376	0.1
733.694	0.09
734.012	0.09
734.329	0.09
734.647	0.1
734.964	0.1
735.281	0.1
735.599	0.1
735.916	0.1
736.233	0.09
736.55	0.1
736.867	0.08
737.184	0.1
737.501	0.1
737.818	0.09
738.135	0.1
738.452	0.09
738.768	0.1
739.085	0.09
739.402	0.08
739.718	0.09
740.035	0.09
740.351	0.09
740.668	0.1
740.984	0.08
741.3	0.08
741.617	0.09
741.933	0.09
742.249	0.09
742.565	0.09
742.881	0.09
743.197	0.08
743.513	0.08
743.829	0.08
744.144	0.08
744.46	0.08
744.776	0.08
745.091	0.08
745.407	0.08
745.722	0.08
746.038	0.09
746.353	0.07
746.669	0.09
746.984	0.08
747.299	0.08
747.614	0.08
747.93	0.08
748.245	0.07
748.56	0.07
748.875	0.08
749.189	0.07
749.504	0.07
749.819	0.08
750.134	0.07
750.448	0.08
750.763	0.07
751.078	0.06
751.392	0.07
751.707	0.08
752.021	0.08
752.335	0.08
752.65	0.08
752.964	0.07
753.278	0.08
753.592	0.07
753.906	0.07
754.22	0.06
754.534	0.07
754.848	0.07
755.162	0.07
755.476	0.08
755.789	0.08
756.103	0.07
756.417	0.08
756.73	0.08
757.044	0.08
757.357	0.08
757.671	0.07
757.984	0.08
758.297	0.08
758.61	0.08
758.924	0.07
759.237	0.07
759.55	0.07
759.863	0.07
760.176	0.07
760.488	0.07
760.801	0.07
761.114	0.07
761.427	0.07
761.739	0.08
762.052	0.06
762.365	0.06
762.677	0.07
762.99	0.07
763.302	0.07
763.614	0.07
763.926	0.07
764.239	0.07
764.551	0.06
764.863	0.08
765.175	0.08
765.487	0.08
765.799	0.06
766.111	0.06
766.423	0.06
766.734	0.07
767.046	0.06
767.358	0.07
767.669	0.06
767.981	0.07
768.292	0.06
768.604	0.07
768.915	0.06
769.226	0.06
769.537	0.06
769.849	0.06
770.16	0.06
770.471	0.06
770.782	0.05
771.093	0.06
771.404	0.05
771.715	0.05
772.025	0.06
772.336	0.06
772.647	0.05
772.957	0.06
773.268	0.06
773.578	0.06
773.889	0.07
774.199	0.07
774.51	0.06
774.82	0.05
775.13	0.07
775.44	0.07
775.75	0.07
776.06	0.07
776.37	0.06
776.68	0.07
776.99	0.07
777.3	0.06
777.61	0.08
777.92	0.08
778.229	0.07
778.539	0.07
778.848	0.07
779.158	0.07
779.467	0.08
779.777	0.07
780.086	0.07
780.395	0.07
780.704	0.06
781.013	0.06
781.323	0.06
781.632	0.07
781.941	0.06
782.249	0.06
782.558	0.05
782.867	0.07
783.176	0.05
783.485	0.07
783.793	0.07
784.102	0.07
784.41	0.07
784.719	0.07
785.027	0.06
785.335	0.06
785.644	0.06
785.952	0.06
786.26	0.07
786.568	0.06
786.876	0.06
787.184	0.07
787.492	0.06
787.8	0.07
788.108	0.07
788.416	0.06
788.723	0.06
789.031	0.05
789.338	0.06
789.646	0.06
789.953	0.06
790.261	0.07
790.568	0.06
790.876	0.06
791.183	0.06
791.49	0.06
791.797	0.06
792.104	0.06
792.411	0.07
792.718	0.06
793.025	0.06
793.332	0.06
793.639	0.07
793.945	0.07
794.252	0.07
794.559	0.06
794.865	0.07
795.172	0.06
795.478	0.06
795.784	0.06
796.091	0.07
796.397	0.07
796.703	0.07
797.009	0.08
797.315	0.07
797.622	0.07
797.927	0.07
798.233	0.06
798.539	0.07
798.845	0.07
799.151	0.07
799.456	0.06
799.762	0.06
800.068	0.07
800.373	0.08
800.679	0.06
800.984	0.07
801.289	0.06
801.595	0.06
801.9	0.07
802.205	0.07
802.51	0.06
802.815	0.06
803.12	0.07
803.425	0.07
803.73	0.06
804.035	0.06
804.339	0.06
804.644	0.06
804.949	0.06
805.253	0.06
805.558	0.06
805.862	0.06
806.167	0.06
806.471	0.06
806.775	0.06
807.08	0.06
807.384	0.05
807.688	0.06
807.992	0.06
808.296	0.06
808.6	0.06
808.904	0.07
809.207	0.06
809.511	0.07
809.815	0.07
810.119	0.07
810.422	0.07
810.726	0.07
811.029	0.08
811.332	0.07
811.636	0.08
811.939	0.06
812.242	0.07
812.546	0.07
812.849	0.07
813.152	0.07
813.455	0.07
813.758	0.07
814.06	0.06
814.363	0.07
814.666	0.07
814.969	0.06
815.271	0.07
815.574	0.06
815.877	0.06
816.179	0.06
816.481	0.05
816.784	0.06
817.086	0.05
817.388	0.05
817.69	0.05
817.993	0.05
818.295	0.05
818.597	0.05
818.899	0.05
819.2	0.05
819.502	0.05
819.804	0.05
820.106	0.05
820.407	0.04
820.709	0.05
821.01	0.05
821.312	0.05
821.613	0.04
821.915	0.04
822.216	0.04
822.517	0.04
822.818	0.04
823.119	0.04
823.42	0.05
823.721	0.04
824.022	0.04
824.323	0.05
824.624	0.04
824.925	0.04
825.226	0.06
825.526	0.04
825.827	0.04
826.127	0.05
826.428	0.05
826.728	0.04
827.028	0.04
827.329	0.04
827.629	0.03
827.929	0.04
828.229	0.04
828.529	0.04
828.829	0.04
829.129	0.04
829.429	0.04
829.729	0.03
830.029	0.04
830.328	0.04
830.628	0.03
830.927	0.03
831.227	0.03
831.526	0.03
831.826	0.03
832.125	0.03
832.424	0.04
832.724	0.04
833.023	0.04
833.322	0.03
833.621	0.03
833.92	0.02
834.219	0.03
834.518	0.03
834.816	0.02
835.115	0.03
835.414	0.02
835.712	0.03
836.011	0.02
836.309	0.02
836.608	0.02
836.906	0.02
837.205	0.01
837.503	0.01
837.801	0.01
838.099	0.01
838.397	-0
838.695	-0
838.993	0.01
839.291	-0
839.589	-0
839.887	-0
840.184	-0
840.482	-0.01
840.78	-0.01
841.077	-0.01
841.375	-0.01
841.672	0
841.969	-0.01
842.267	-0
842.564	-0.01
842.861	-0
843.158	-0.01
843.455	-0.02
843.752	-0.02
844.049	-0.02
844.346	-0.01
844.643	-0.02
844.94	-0.02
845.236	-0
845.533	-0.01
845.83	-0.01
846.126	-0.01
846.423	-0.02
846.719	-0.02
847.015	-0.03
847.312	-0.03
847.608	-0.03
847.904	-0.03
848.2	-0.04
848.496	-0.03
848.792	-0.03
849.088	-0.03
849.384	-0.04
849.68	-0.04
849.975	-0.03
850.271	-0.05
850.567	-0.05
850.862	-0.05
851.158	-0.05
851.453	-0.04
851.748	-0.06
852.044	-0.05
852.339	-0.05
852.634	-0.07
852.929	-0.05
853.224	-0.06
853.519	-0.06
853.814	-0.05
854.109	-0.06
854.404	-0.06
854.699	-0.07
854.994	-0.06
855.288	-0.06
855.583	-0.05
855.877	-0.07
856.172	-0.05
856.466	-0.06
856.76	-0.06
857.055	-0.07
857.349	-0.07
857.643	-0.07
857.937	-0.08
858.231	-0.07
858.525	-0.08
858.819	-0.08
859.113	-0.1
859.407	-0.09
859.701	-0.09
859.994	-0.09
860.288	-0.08
860.581	-0.09
860.875	-0.1
861.168	-0.1
861.462	-0.1
861.755	-0.1
862.048	-0.11
862.341	-0.1
862.634	-0.11
862.928	-0.1
863.221	-0.1
863.513	-0.12
863.806	-0.11
864.099	-0.11
864.392	-0.11
864.685	-0.11
864.977	-0.1
865.27	-0.11
865.562	-0.12
865.855	-0.1
866.147	-0.11
866.44	-0.1
866.732	-0.12
867.024	-0.12
867.316	-0.12
867.608	-0.12
867.9	-0.12
868.192	-0.13
868.484	-0.12
868.776	-0.12
869.068	-0.12
869.359	-0.12
869.651	-0.14
869.943	-0.13
870.234	-0.14
870.526	-0.13
870.817	-0.14
871.108	-0.13
871.4	-0.14
871.691	-0.14
871.982	-0.15
872.273	-0.16
872.564	-0.15
872.855	-0.15
873.146	-0.15
873.437	-0.15
873.728	-0.15
874.019	-0.15
874.309	-0.15
874.6	-0.14
874.89	-0.15
875.181	-0.17
875.471	-0.15
875.762	-0.15
876.052	-0.16
876.342	-0.15
876.632	-0.16
876.922	-0.17
877.213	-0.17
877.503	-0.17
877.792	-0.17
878.082	-0.17
878.372	-0.16
878.662	-0.17
878.952	-0.17
879.241	-0.16
879.531	-0.16
879.82	-0.17
880.11	-0.17
880.399	-0.16
880.688	-0.16
880.978	-0.16
881.267	-0.16
