Data from 12-12-AQDScycling_Absorbance__51__00051.txt Node

Date: Tue Dec 12 11:10:08 EST 2023
User: kyuminlee
Spectrometer: FLMS00943
Trigger mode: 0
Integration Time (sec): 1.000000E-1
Scans to average: 1
Electric dark correction enabled: true
Nonlinearity correction enabled: false
Boxcar width: 0
XAxis mode: Wavelengths
Number of Pixels in Spectrum: 2048
>>>>>Begin Spectral Data<<<<<
179.651	-0.15
180.037	-0.15
180.424	-0.15
180.81	-0.21
181.197	0.33
181.583	-0.51
181.97	0.21
182.356	-0
182.743	-0.43
183.129	0.5
183.515	0.04
183.901	-0
184.288	0.28
184.674	-0
185.06	-1.14
185.446	-0
185.832	-0
186.218	0.25
186.604	-0
186.99	-0
187.376	0.26
187.762	1.45
188.148	0.64
188.534	-0.44
188.92	0.02
189.305	0.05
189.691	0.19
190.077	0.13
190.463	0.12
190.848	0.04
191.234	0.41
191.619	0.12
192.005	0.16
192.391	0.15
192.776	0.1
193.161	0.12
193.547	0.26
193.932	0.09
194.318	0.06
194.703	0.1
195.088	0.18
195.473	0.27
195.859	0.26
196.244	0.15
196.629	0.22
197.014	0.08
197.399	0.2
197.784	0.25
198.169	0.25
198.554	0.2
198.939	0.12
199.324	0.19
199.709	0.09
200.094	0.17
200.478	0.09
200.863	0.09
201.248	0.2
201.633	0.08
202.017	0.23
202.402	0.27
202.787	0.05
203.171	0.22
203.556	0.17
203.94	0.09
204.325	0.28
204.709	0.29
205.093	0.16
205.478	0.2
205.862	0.04
206.246	0.21
206.631	0.19
207.015	0.07
207.399	0.23
207.783	0.09
208.167	0.12
208.551	0.38
208.935	0.18
209.319	0.15
209.703	0.23
210.087	0.35
210.471	0.18
210.855	0.19
211.239	0.19
211.623	0.22
212.007	0.16
212.39	0.19
212.774	0.28
213.158	0.13
213.541	0.24
213.925	0.32
214.309	0.27
214.692	0.28
215.076	0.27
215.459	0.18
215.842	0.17
216.226	0.31
216.609	0.29
216.993	0.16
217.376	0.45
217.759	0.21
218.142	0.37
218.525	0.53
218.909	0.28
219.292	0.29
219.675	0.47
220.058	0.37
220.441	0.49
220.824	0.6
221.207	0.62
221.59	0.43
221.973	0.53
222.355	0.64
222.738	0.78
223.121	0.51
223.504	0.56
223.886	0.66
224.269	0.59
224.652	0.66
225.034	0.86
225.417	0.8
225.799	0.9
226.182	0.92
226.564	0.83
226.947	0.75
227.329	0.82
227.711	0.89
228.094	1.01
228.476	0.97
228.858	0.81
229.24	0.83
229.623	0.88
230.005	0.83
230.387	0.98
230.769	0.83
231.151	1.07
231.533	0.92
231.915	1.09
232.297	1.06
232.679	1.08
233.061	1.09
233.442	1.03
233.824	0.95
234.206	1.09
234.588	1.02
234.969	1.13
235.351	0.98
235.733	1.12
236.114	1.19
236.496	1.03
236.877	1.16
237.259	1.03
237.64	1.14
238.022	1.15
238.403	0.97
238.784	1.07
239.165	0.92
239.547	1.11
239.928	1.14
240.309	1.02
240.69	1.25
241.071	1.12
241.452	1.07
241.834	1.13
242.215	1.07
242.595	1.05
242.976	1.23
243.357	1.18
243.738	1.09
244.119	1.27
244.5	1.1
244.881	1.15
245.261	1.09
245.642	1.2
246.023	1.1
246.403	1.21
246.784	1.27
247.164	1.34
247.545	1.36
247.925	1.41
248.306	1.34
248.686	1.49
249.067	1.35
249.447	1.25
249.827	1.53
250.207	1.49
250.588	1.38
250.968	1.44
251.348	1.27
251.728	1.51
252.108	1.41
252.488	1.35
252.868	1.34
253.248	1.33
253.628	1.47
254.008	1.59
254.388	1.19
254.768	1.38
255.147	1.45
255.527	1.47
255.907	1.26
256.287	1.48
256.666	1.3
257.046	1.59
257.425	1.44
257.805	1.46
258.184	1.3
258.564	1.45
258.943	1.34
259.323	1.6
259.702	1.47
260.081	1.61
260.461	1.51
260.84	1.51
261.219	1.7
261.598	1.5
261.977	1.63
262.356	1.5
262.736	1.6
263.115	1.71
263.494	1.57
263.873	1.64
264.251	1.39
264.63	1.68
265.009	1.34
265.388	1.42
265.767	1.39
266.145	1.39
266.524	1.4
266.903	1.43
267.281	1.38
267.66	1.55
268.039	1.39
268.417	1.42
268.796	1.46
269.174	1.44
269.552	1.29
269.931	1.53
270.309	1.47
270.687	1.56
271.066	1.54
271.444	1.49
271.822	1.48
272.2	1.43
272.578	1.41
272.956	1.42
273.334	1.49
273.712	1.53
274.09	1.61
274.468	1.49
274.846	1.27
275.224	1.28
275.602	1.33
275.98	1.5
276.357	1.44
276.735	1.48
277.113	1.45
277.49	1.36
277.868	1.22
278.246	1.37
278.623	1.35
279.001	1.39
279.378	1.45
279.756	1.41
280.133	1.6
280.51	1.48
280.888	1.48
281.265	1.36
281.642	1.38
282.019	1.65
282.396	1.52
282.773	1.49
283.151	1.45
283.528	1.52
283.905	1.41
284.282	1.82
284.659	1.65
285.035	1.32
285.412	1.36
285.789	1.48
286.166	1.54
286.543	1.36
286.919	1.56
287.296	1.38
287.673	1.54
288.049	1.46
288.426	1.55
288.802	1.64
289.179	1.36
289.555	1.59
289.932	1.5
290.308	1.42
290.684	1.37
291.061	1.41
291.437	1.49
291.813	1.5
292.189	1.32
292.565	1.34
292.942	1.38
293.318	1.57
293.694	1.62
294.07	1.41
294.446	1.39
294.822	1.54
295.197	1.54
295.573	1.53
295.949	1.37
296.325	1.65
296.701	1.59
297.076	1.49
297.452	1.55
297.828	1.39
298.203	1.63
298.579	1.43
298.954	1.5
299.33	1.41
299.705	1.46
300.081	1.55
300.456	1.44
300.831	1.49
301.206	1.49
301.582	1.59
301.957	1.45
302.332	1.47
302.707	1.44
303.082	1.39
303.457	1.42
303.832	1.4
304.207	1.38
304.582	1.44
304.957	1.44
305.332	1.47
305.707	1.4
306.082	1.49
306.456	1.48
306.831	1.4
307.206	1.5
307.58	1.46
307.955	1.36
308.33	1.51
308.704	1.39
309.079	1.37
309.453	1.53
309.828	1.48
310.202	1.36
310.576	1.39
310.951	1.44
311.325	1.44
311.699	1.31
312.073	1.3
312.447	1.44
312.821	1.41
313.196	1.39
313.57	1.36
313.944	1.35
314.317	1.35
314.691	1.37
315.065	1.42
315.439	1.43
315.813	1.37
316.187	1.31
316.56	1.41
316.934	1.39
317.308	1.38
317.681	1.35
318.055	1.5
318.428	1.46
318.802	1.61
319.175	1.44
319.549	1.44
319.922	1.33
320.295	1.34
320.669	1.51
321.042	1.46
321.415	1.46
321.788	1.44
322.162	1.56
322.535	1.57
322.908	1.55
323.281	1.35
323.654	1.53
324.027	1.39
324.4	1.41
324.773	1.42
325.145	1.74
325.518	1.41
325.891	1.29
326.264	1.56
326.636	1.41
327.009	1.41
327.382	1.41
327.754	1.4
328.127	1.56
328.499	1.61
328.872	1.42
329.244	1.49
329.616	1.39
329.989	1.54
330.361	1.42
330.733	1.39
331.106	1.46
331.478	1.72
331.85	1.44
332.222	1.36
332.594	1.43
332.966	1.42
333.338	1.59
333.71	1.49
334.082	1.66
334.454	1.44
334.826	1.52
335.197	1.56
335.569	1.47
335.941	1.44
336.312	1.46
336.684	1.44
337.056	1.5
337.427	1.47
337.799	1.53
338.17	1.47
338.542	1.51
338.913	1.6
339.284	1.59
339.656	1.38
340.027	1.48
340.398	1.54
340.769	1.48
341.141	1.61
341.512	1.49
341.883	1.38
342.254	1.48
342.625	1.46
342.996	1.39
343.367	1.41
343.738	1.51
344.108	1.43
344.479	1.73
344.85	1.44
345.221	1.43
345.591	1.44
345.962	1.51
346.333	1.44
346.703	1.23
347.074	1.38
347.444	1.32
347.815	1.33
348.185	1.42
348.556	1.33
348.926	1.38
349.296	1.41
349.666	1.32
350.037	1.37
350.407	1.18
350.777	1.33
351.147	1.43
351.517	1.36
351.887	1.3
352.257	1.37
352.627	1.4
352.997	1.31
353.367	1.37
353.737	1.51
354.106	1.43
354.476	1.37
354.846	1.56
355.216	1.37
355.585	1.37
355.955	1.41
356.324	1.31
356.694	1.31
357.063	1.32
357.433	1.34
357.802	1.38
358.171	1.34
358.541	1.28
358.91	1.35
359.279	1.38
359.648	1.32
360.017	1.37
360.387	1.43
360.756	1.28
361.125	1.39
361.494	1.31
361.863	1.28
362.231	1.28
362.6	1.3
362.969	1.26
363.338	1.29
363.707	1.35
364.075	1.41
364.444	1.24
364.813	1.31
365.181	1.27
365.55	1.34
365.918	1.39
366.287	1.3
366.655	1.41
367.024	1.34
367.392	1.37
367.76	1.23
368.128	1.32
368.497	1.3
368.865	1.35
369.233	1.44
369.601	1.32
369.969	1.31
370.337	1.4
370.705	1.3
371.073	1.28
371.441	1.29
371.809	1.3
372.177	1.28
372.544	1.38
372.912	1.36
373.28	1.33
373.647	1.36
374.015	1.46
374.383	1.46
374.75	1.38
375.118	1.34
375.485	1.31
375.853	1.43
376.22	1.24
376.587	1.34
376.955	1.43
377.322	1.41
377.689	1.4
378.056	1.33
378.423	1.31
378.79	1.42
379.157	1.41
379.524	1.45
379.891	1.35
380.258	1.41
380.625	1.44
380.992	1.33
381.359	1.46
381.726	1.47
382.092	1.41
382.459	1.47
382.826	1.34
383.192	1.44
383.559	1.37
383.925	1.38
384.292	1.33
384.658	1.61
385.025	1.4
385.391	1.43
385.757	1.44
386.123	1.41
386.49	1.42
386.856	1.57
387.222	1.6
387.588	1.45
387.954	1.67
388.32	1.69
388.686	1.45
389.052	1.51
389.418	1.49
389.784	1.48
390.15	1.59
390.515	1.36
390.881	1.58
391.247	1.36
391.613	1.57
391.978	1.52
392.344	1.57
392.709	1.52
393.075	1.59
393.44	1.43
393.806	1.49
394.171	1.35
394.536	1.49
394.902	1.4
395.267	1.44
395.632	1.41
395.997	1.43
396.362	1.43
396.727	1.49
397.092	1.43
397.457	1.44
397.822	1.32
398.187	1.54
398.552	1.41
398.917	1.53
399.282	1.33
399.646	1.35
400.011	1.51
400.376	1.36
400.74	1.42
401.105	1.34
401.47	1.48
401.834	1.44
402.199	1.33
402.563	1.4
402.927	1.33
403.292	1.36
403.656	1.39
404.02	1.44
404.384	1.56
404.749	1.37
405.113	1.4
405.477	1.39
405.841	1.33
406.205	1.32
406.569	1.27
406.933	1.29
407.296	1.31
407.66	1.25
408.024	1.29
408.388	1.39
408.752	1.25
409.115	1.3
409.479	1.31
409.842	1.33
410.206	1.26
410.569	1.28
410.933	1.31
411.296	1.24
411.66	1.35
412.023	1.15
412.386	1.22
412.749	1.22
413.113	1.21
413.476	1.24
413.839	1.24
414.202	1.27
414.565	1.2
414.928	1.16
415.291	1.12
415.654	1.18
416.017	1.24
416.38	1.17
416.742	1.19
417.105	1.11
417.468	1.17
417.83	1.18
418.193	1.21
418.556	1.14
418.918	1.1
419.281	1.17
419.643	1.13
420.005	1.16
420.368	1.17
420.73	1.13
421.092	1.15
421.455	1.22
421.817	1.09
422.179	1.08
422.541	1.14
422.903	1.14
423.265	1.16
423.627	1.11
423.989	1.06
424.351	1.08
424.713	1.09
425.075	1.12
425.436	1.06
425.798	1.09
426.16	1.16
426.521	1.08
426.883	1.06
427.245	1.08
427.606	1.04
427.967	1.03
428.329	1.07
428.69	1.08
429.052	1.05
429.413	1.09
429.774	1.06
430.135	1.12
430.497	1.1
430.858	1.05
431.219	1.09
431.58	1.01
431.941	1.04
432.302	1.05
432.663	1.03
433.024	1.06
433.384	1.03
433.745	1.03
434.106	1.04
434.467	1.02
434.827	1.02
435.188	1.07
435.548	1.02
435.909	1.01
436.269	1.06
436.63	0.95
436.99	1
437.351	0.97
437.711	1
438.071	0.95
438.431	0.96
438.792	0.97
439.152	0.97
439.512	0.96
439.872	0.95
440.232	0.98
440.592	0.93
440.952	0.95
441.312	0.91
441.671	0.93
442.031	0.91
442.391	0.91
442.751	0.93
443.11	0.94
443.47	0.91
443.83	0.89
444.189	0.88
444.549	0.9
444.908	0.89
445.267	0.87
445.627	0.88
445.986	0.86
446.345	0.85
446.705	0.87
447.064	0.84
447.423	0.84
447.782	0.85
448.141	0.84
448.5	0.83
448.859	0.84
449.218	0.82
449.577	0.82
449.936	0.85
450.295	0.82
450.653	0.79
451.012	0.81
451.371	0.8
451.729	0.78
452.088	0.81
452.447	0.79
452.805	0.78
453.163	0.8
453.522	0.77
453.88	0.76
454.239	0.78
454.597	0.75
454.955	0.74
455.313	0.74
455.671	0.74
456.029	0.72
456.388	0.71
456.746	0.71
457.104	0.71
457.461	0.69
457.819	0.69
458.177	0.68
458.535	0.68
458.893	0.66
459.25	0.66
459.608	0.66
459.966	0.66
460.323	0.64
460.681	0.63
461.038	0.62
461.396	0.62
461.753	0.61
462.111	0.6
462.468	0.6
462.825	0.59
463.182	0.59
463.54	0.57
463.897	0.57
464.254	0.57
464.611	0.57
464.968	0.55
465.325	0.54
465.682	0.54
466.039	0.52
466.395	0.52
466.752	0.51
467.109	0.51
467.466	0.5
467.822	0.51
468.179	0.5
468.535	0.5
468.892	0.48
469.248	0.49
469.605	0.47
469.961	0.46
470.318	0.48
470.674	0.46
471.03	0.45
471.386	0.46
471.743	0.44
472.099	0.42
472.455	0.42
472.811	0.41
473.167	0.41
473.523	0.41
473.879	0.4
474.235	0.4
474.59	0.39
474.946	0.4
475.302	0.38
475.657	0.38
476.013	0.38
476.369	0.37
476.724	0.37
477.08	0.37
477.435	0.36
477.791	0.35
478.146	0.35
478.501	0.35
478.857	0.35
479.212	0.35
479.567	0.33
479.922	0.32
480.277	0.32
480.632	0.31
480.987	0.32
481.342	0.32
481.697	0.3
482.052	0.3
482.407	0.3
482.762	0.29
483.116	0.28
483.471	0.29
483.826	0.27
484.18	0.28
484.535	0.27
484.89	0.27
485.244	0.27
485.598	0.27
485.953	0.26
486.307	0.26
486.661	0.26
487.016	0.25
487.37	0.26
487.724	0.25
488.078	0.25
488.432	0.25
488.786	0.24
489.14	0.24
489.494	0.23
489.848	0.23
490.202	0.23
490.556	0.23
490.91	0.24
491.263	0.23
491.617	0.22
491.971	0.23
492.324	0.21
492.678	0.22
493.031	0.22
493.385	0.21
493.738	0.21
494.091	0.21
494.445	0.21
494.798	0.21
495.151	0.21
495.504	0.2
495.857	0.2
496.21	0.2
496.564	0.2
496.916	0.21
497.269	0.2
497.622	0.2
497.975	0.2
498.328	0.2
498.681	0.2
499.033	0.19
499.386	0.2
499.739	0.19
500.091	0.18
500.444	0.19
500.796	0.19
501.149	0.19
501.501	0.19
501.854	0.19
502.206	0.19
502.558	0.19
502.91	0.19
503.263	0.19
503.615	0.18
503.967	0.18
504.319	0.18
504.671	0.18
505.023	0.18
505.375	0.17
505.726	0.17
506.078	0.17
506.43	0.18
506.782	0.16
507.133	0.17
507.485	0.17
507.837	0.18
508.188	0.18
508.54	0.17
508.891	0.18
509.243	0.17
509.594	0.17
509.945	0.17
510.296	0.17
510.648	0.17
510.999	0.16
511.35	0.16
511.701	0.17
512.052	0.16
512.403	0.17
512.754	0.16
513.105	0.16
513.456	0.16
513.807	0.16
514.157	0.16
514.508	0.16
514.859	0.15
515.209	0.15
515.56	0.16
515.91	0.15
516.261	0.16
516.611	0.16
516.962	0.16
517.312	0.16
517.662	0.16
518.013	0.16
518.363	0.16
518.713	0.16
519.063	0.16
519.413	0.16
519.763	0.16
520.113	0.16
520.463	0.16
520.813	0.16
521.163	0.16
521.512	0.16
521.862	0.16
522.212	0.16
522.562	0.16
522.911	0.16
523.261	0.16
523.61	0.16
523.96	0.16
524.309	0.16
524.658	0.16
525.008	0.16
525.357	0.16
525.706	0.17
526.056	0.16
526.405	0.16
526.754	0.16
527.103	0.16
527.452	0.17
527.801	0.16
528.15	0.17
528.499	0.17
528.847	0.16
529.196	0.17
529.545	0.16
529.893	0.17
530.242	0.16
530.591	0.16
530.939	0.17
531.288	0.16
531.636	0.16
531.985	0.16
532.333	0.16
532.681	0.16
533.029	0.16
533.378	0.16
533.726	0.17
534.074	0.17
534.422	0.16
534.77	0.17
535.118	0.17
535.466	0.16
535.814	0.16
536.162	0.17
536.509	0.17
536.857	0.17
537.205	0.17
537.552	0.17
537.9	0.17
538.248	0.17
538.595	0.16
538.943	0.16
539.29	0.16
539.637	0.16
539.985	0.16
540.332	0.16
540.679	0.17
541.026	0.15
541.373	0.17
541.721	0.16
542.068	0.16
542.415	0.17
542.762	0.16
543.108	0.15
543.455	0.16
543.802	0.15
544.149	0.17
544.496	0.16
544.842	0.16
545.189	0.15
545.535	0.16
545.882	0.16
546.228	0.16
546.575	0.15
546.921	0.16
547.267	0.16
547.614	0.16
547.96	0.16
548.306	0.16
548.652	0.16
548.998	0.17
549.344	0.16
549.69	0.16
550.036	0.16
550.382	0.16
550.728	0.16
551.074	0.16
551.42	0.17
551.765	0.16
552.111	0.16
552.457	0.16
552.802	0.16
553.148	0.17
553.493	0.16
553.839	0.17
554.184	0.17
554.529	0.16
554.875	0.17
555.22	0.18
555.565	0.17
555.91	0.17
556.255	0.17
556.6	0.17
556.945	0.16
557.29	0.17
557.635	0.17
557.98	0.17
558.325	0.17
558.67	0.16
559.014	0.16
559.359	0.16
559.704	0.16
560.048	0.16
560.393	0.16
560.737	0.15
561.082	0.16
561.426	0.15
561.77	0.16
562.115	0.16
562.459	0.17
562.803	0.16
563.147	0.16
563.491	0.16
563.835	0.16
564.179	0.16
564.523	0.16
564.867	0.16
565.211	0.16
565.555	0.16
565.899	0.16
566.242	0.16
566.586	0.16
566.93	0.16
567.273	0.17
567.617	0.17
567.96	0.17
568.304	0.17
568.647	0.16
568.99	0.17
569.334	0.17
569.677	0.16
570.02	0.18
570.363	0.17
570.706	0.17
571.049	0.17
571.392	0.17
571.735	0.16
572.078	0.17
572.421	0.18
572.764	0.18
573.106	0.17
573.449	0.17
573.792	0.16
574.134	0.16
574.477	0.17
574.819	0.17
575.162	0.17
575.504	0.16
575.847	0.16
576.189	0.18
576.531	0.17
576.873	0.17
577.215	0.17
577.558	0.17
577.9	0.16
578.242	0.17
578.584	0.17
578.926	0.16
579.267	0.16
579.609	0.16
579.951	0.16
580.293	0.17
580.634	0.17
580.976	0.16
581.318	0.16
581.659	0.15
582.001	0.16
582.342	0.16
582.683	0.17
583.025	0.17
583.366	0.16
583.707	0.16
584.049	0.16
584.39	0.17
584.731	0.16
585.072	0.16
585.413	0.16
585.754	0.16
586.095	0.16
586.435	0.16
586.776	0.17
587.117	0.16
587.458	0.16
587.798	0.15
588.139	0.16
588.48	0.16
588.82	0.15
589.161	0.16
589.501	0.16
589.841	0.15
590.182	0.15
590.522	0.15
590.862	0.16
591.202	0.16
591.542	0.15
591.882	0.16
592.222	0.16
592.562	0.16
592.902	0.15
593.242	0.15
593.582	0.17
593.922	0.16
594.261	0.15
594.601	0.16
594.941	0.16
595.28	0.16
595.62	0.16
595.959	0.16
596.299	0.16
596.638	0.16
596.977	0.16
597.317	0.17
597.656	0.16
597.995	0.16
598.334	0.17
598.673	0.16
599.012	0.16
599.351	0.16
599.69	0.15
600.029	0.17
600.368	0.16
600.707	0.15
601.046	0.16
601.384	0.17
601.723	0.16
602.061	0.16
602.4	0.16
602.738	0.16
603.077	0.16
603.415	0.15
603.754	0.16
604.092	0.16
604.43	0.16
604.768	0.16
605.107	0.17
605.445	0.15
605.783	0.15
606.121	0.16
606.459	0.16
606.796	0.17
607.134	0.15
607.472	0.16
607.81	0.16
608.148	0.16
608.485	0.16
608.823	0.16
609.16	0.16
609.498	0.16
609.835	0.16
610.173	0.16
610.51	0.16
610.847	0.17
611.185	0.17
611.522	0.16
611.859	0.17
612.196	0.16
612.533	0.17
612.87	0.18
613.207	0.17
613.544	0.17
613.881	0.18
614.217	0.18
614.554	0.17
614.891	0.17
615.228	0.16
615.564	0.17
615.901	0.16
616.237	0.16
616.574	0.16
616.91	0.16
617.246	0.16
617.583	0.16
617.919	0.17
618.255	0.17
618.591	0.16
618.927	0.16
619.263	0.17
619.599	0.17
619.935	0.16
620.271	0.17
620.607	0.16
620.943	0.16
621.279	0.16
621.614	0.15
621.95	0.16
622.286	0.16
622.621	0.16
622.957	0.16
623.292	0.15
623.627	0.15
623.963	0.16
624.298	0.16
624.633	0.16
624.968	0.16
625.304	0.15
625.639	0.16
625.974	0.15
626.309	0.15
626.644	0.16
626.979	0.16
627.313	0.16
627.648	0.16
627.983	0.15
628.318	0.15
628.652	0.15
628.987	0.16
629.321	0.15
629.656	0.15
629.99	0.15
630.325	0.16
630.659	0.15
630.993	0.15
631.327	0.15
631.662	0.14
631.996	0.14
632.33	0.15
632.664	0.15
632.998	0.14
633.332	0.15
633.666	0.14
633.999	0.14
634.333	0.14
634.667	0.14
635.001	0.13
635.334	0.14
635.668	0.14
636.001	0.14
636.335	0.14
636.668	0.14
637.001	0.13
637.335	0.14
637.668	0.14
638.001	0.13
638.334	0.14
638.668	0.14
639.001	0.14
639.334	0.14
639.667	0.13
639.999	0.14
640.332	0.14
640.665	0.13
640.998	0.14
641.331	0.14
641.663	0.14
641.996	0.14
642.328	0.14
642.661	0.14
642.993	0.13
643.326	0.14
643.658	0.13
643.99	0.13
644.323	0.13
644.655	0.14
644.987	0.14
645.319	0.14
645.651	0.14
645.983	0.13
646.315	0.13
646.647	0.14
646.979	0.15
647.31	0.15
647.642	0.14
647.974	0.14
648.305	0.14
648.637	0.14
648.968	0.14
649.3	0.15
649.631	0.15
649.963	0.14
650.294	0.14
650.625	0.13
650.957	0.14
651.288	0.14
651.619	0.14
651.95	0.14
652.281	0.13
652.612	0.14
652.943	0.14
653.274	0.14
653.604	0.14
653.935	0.13
654.266	0.14
654.596	0.13
654.927	0.14
655.258	0.14
655.588	0.13
655.918	0.14
656.249	0.12
656.579	0.14
656.909	0.13
657.24	0.13
657.57	0.14
657.9	0.14
658.23	0.14
658.56	0.14
658.89	0.14
659.22	0.13
659.55	0.14
659.88	0.14
660.209	0.13
660.539	0.15
660.869	0.14
661.198	0.13
661.528	0.13
661.857	0.13
662.187	0.14
662.516	0.13
662.846	0.13
663.175	0.13
663.504	0.14
663.833	0.13
664.163	0.14
664.492	0.12
664.821	0.13
665.15	0.13
665.479	0.13
665.807	0.12
666.136	0.13
666.465	0.13
666.794	0.13
667.122	0.12
667.451	0.12
667.78	0.12
668.108	0.13
668.437	0.12
668.765	0.13
669.093	0.12
669.422	0.12
669.75	0.12
670.078	0.12
670.406	0.13
670.734	0.12
671.062	0.12
671.39	0.12
671.718	0.12
672.046	0.13
672.374	0.12
672.702	0.12
673.029	0.12
673.357	0.13
673.685	0.13
674.012	0.12
674.34	0.12
674.667	0.13
674.995	0.12
675.322	0.12
675.649	0.12
675.977	0.12
676.304	0.12
676.631	0.12
676.958	0.12
677.285	0.11
677.612	0.11
677.939	0.11
678.266	0.12
678.593	0.11
678.92	0.11
679.246	0.11
679.573	0.11
679.9	0.11
680.226	0.11
680.553	0.1
680.879	0.11
681.206	0.11
681.532	0.1
681.858	0.11
682.184	0.1
682.511	0.11
682.837	0.1
683.163	0.11
683.489	0.11
683.815	0.1
684.141	0.1
684.467	0.11
684.793	0.1
685.118	0.1
685.444	0.11
685.77	0.1
686.095	0.11
686.421	0.1
686.746	0.11
687.072	0.11
687.397	0.1
687.723	0.1
688.048	0.11
688.373	0.1
688.698	0.1
689.023	0.1
689.349	0.11
689.674	0.1
689.999	0.1
690.323	0.09
690.648	0.09
690.973	0.09
691.298	0.09
691.623	0.09
691.947	0.1
692.272	0.1
692.596	0.1
692.921	0.1
693.245	0.09
693.57	0.1
693.894	0.1
694.218	0.09
694.543	0.09
694.867	0.09
695.191	0.09
695.515	0.1
695.839	0.08
696.163	0.09
696.487	0.09
696.811	0.09
697.135	0.09
697.458	0.1
697.782	0.1
698.106	0.09
698.429	0.1
698.753	0.1
699.076	0.1
699.4	0.09
699.723	0.09
700.046	0.09
700.37	0.09
700.693	0.1
701.016	0.09
701.339	0.1
701.662	0.1
701.985	0.11
702.308	0.09
702.631	0.1
702.954	0.09
703.277	0.09
703.599	0.09
703.922	0.09
704.245	0.09
704.567	0.08
704.89	0.09
705.212	0.09
705.535	0.08
705.857	0.08
706.179	0.08
706.502	0.08
706.824	0.08
707.146	0.08
707.468	0.09
707.79	0.08
708.112	0.09
708.434	0.08
708.756	0.08
709.078	0.08
709.399	0.08
709.721	0.08
710.043	0.09
710.364	0.08
710.686	0.07
711.007	0.07
711.329	0.08
711.65	0.07
711.972	0.09
712.293	0.07
712.614	0.08
712.935	0.07
713.256	0.08
713.577	0.09
713.898	0.08
714.219	0.08
714.54	0.07
714.861	0.07
715.182	0.07
715.503	0.07
715.823	0.08
716.144	0.08
716.464	0.07
716.785	0.07
717.105	0.08
717.426	0.08
717.746	0.08
718.066	0.07
718.387	0.08
718.707	0.06
719.027	0.07
719.347	0.06
719.667	0.07
719.987	0.07
720.307	0.06
720.627	0.07
720.947	0.07
721.266	0.06
721.586	0.06
721.906	0.07
722.225	0.06
722.545	0.06
722.864	0.06
723.184	0.07
723.503	0.07
723.823	0.07
724.142	0.06
724.461	0.07
724.78	0.06
725.099	0.07
725.418	0.07
725.737	0.06
726.056	0.07
726.375	0.07
726.694	0.07
727.013	0.07
727.331	0.05
727.65	0.06
727.969	0.07
728.287	0.07
728.606	0.07
728.924	0.06
729.242	0.06
729.561	0.06
729.879	0.06
730.197	0.07
730.515	0.06
730.834	0.06
731.152	0.06
731.47	0.06
731.788	0.05
732.105	0.06
732.423	0.06
732.741	0.06
733.059	0.05
733.376	0.06
733.694	0.05
734.012	0.05
734.329	0.06
734.647	0.06
734.964	0.06
735.281	0.06
735.599	0.07
735.916	0.06
736.233	0.06
736.55	0.06
736.867	0.06
737.184	0.07
737.501	0.06
737.818	0.06
738.135	0.06
738.452	0.06
738.768	0.07
739.085	0.06
739.402	0.05
739.718	0.06
740.035	0.05
740.351	0.07
740.668	0.07
740.984	0.06
741.3	0.05
741.617	0.06
741.933	0.05
742.249	0.06
742.565	0.06
742.881	0.07
743.197	0.07
743.513	0.06
743.829	0.06
744.144	0.06
744.46	0.06
744.776	0.06
745.091	0.06
745.407	0.06
745.722	0.05
746.038	0.06
746.353	0.05
746.669	0.06
746.984	0.04
747.299	0.05
747.614	0.06
747.93	0.06
748.245	0.05
748.56	0.05
748.875	0.05
749.189	0.05
749.504	0.05
749.819	0.06
750.134	0.05
750.448	0.05
750.763	0.05
751.078	0.05
751.392	0.05
751.707	0.06
752.021	0.06
752.335	0.07
752.65	0.06
752.964	0.05
753.278	0.06
753.592	0.05
753.906	0.06
754.22	0.06
754.534	0.06
754.848	0.06
755.162	0.06
755.476	0.06
755.789	0.05
756.103	0.05
756.417	0.07
756.73	0.06
757.044	0.07
757.357	0.06
757.671	0.06
757.984	0.05
758.297	0.06
758.61	0.06
758.924	0.06
759.237	0.06
759.55	0.06
759.863	0.05
760.176	0.06
760.488	0.06
760.801	0.06
761.114	0.05
761.427	0.04
761.739	0.06
762.052	0.05
762.365	0.05
762.677	0.05
762.99	0.05
763.302	0.05
763.614	0.05
763.926	0.05
764.239	0.05
764.551	0.05
764.863	0.05
765.175	0.05
765.487	0.05
765.799	0.04
766.111	0.05
766.423	0.05
766.734	0.05
767.046	0.05
767.358	0.05
767.669	0.05
767.981	0.05
768.292	0.05
768.604	0.06
768.915	0.05
769.226	0.05
769.537	0.04
769.849	0.05
770.16	0.05
770.471	0.04
770.782	0.04
771.093	0.04
771.404	0.03
771.715	0.03
772.025	0.04
772.336	0.04
772.647	0.03
772.957	0.04
773.268	0.04
773.578	0.04
773.889	0.04
774.199	0.05
774.51	0.04
774.82	0.03
775.13	0.04
775.44	0.04
775.75	0.04
776.06	0.05
776.37	0.04
776.68	0.05
776.99	0.04
777.3	0.03
777.61	0.04
777.92	0.04
778.229	0.04
778.539	0.04
778.848	0.04
779.158	0.04
779.467	0.05
779.777	0.04
780.086	0.05
780.395	0.04
780.704	0.03
781.013	0.03
781.323	0.04
781.632	0.04
781.941	0.04
782.249	0.04
782.558	0.03
782.867	0.04
783.176	0.03
783.485	0.03
783.793	0.04
784.102	0.04
784.41	0.03
784.719	0.03
785.027	0.03
785.335	0.04
785.644	0.04
785.952	0.03
786.26	0.03
786.568	0.03
786.876	0.04
787.184	0.03
787.492	0.04
787.8	0.04
788.108	0.04
788.416	0.04
788.723	0.05
789.031	0.03
789.338	0.04
789.646	0.03
789.953	0.04
790.261	0.04
790.568	0.04
790.876	0.04
791.183	0.05
791.49	0.04
791.797	0.04
792.104	0.03
792.411	0.04
792.718	0.04
793.025	0.05
793.332	0.05
793.639	0.05
793.945	0.05
794.252	0.05
794.559	0.05
794.865	0.05
795.172	0.05
795.478	0.04
795.784	0.05
796.091	0.04
796.397	0.05
796.703	0.05
797.009	0.06
797.315	0.04
797.622	0.04
797.927	0.04
798.233	0.04
798.539	0.04
798.845	0.04
799.151	0.04
799.456	0.04
799.762	0.04
800.068	0.04
800.373	0.05
800.679	0.04
800.984	0.04
801.289	0.03
801.595	0.04
801.9	0.04
802.205	0.03
802.51	0.04
802.815	0.03
803.12	0.03
803.425	0.04
803.73	0.04
804.035	0.03
804.339	0.04
804.644	0.03
804.949	0.03
805.253	0.03
805.558	0.04
805.862	0.03
806.167	0.04
806.471	0.04
806.775	0.03
807.08	0.04
807.384	0.04
807.688	0.03
807.992	0.04
808.296	0.04
808.6	0.04
808.904	0.04
809.207	0.04
809.511	0.05
809.815	0.05
810.119	0.04
810.422	0.04
810.726	0.05
811.029	0.05
811.332	0.04
811.636	0.05
811.939	0.04
812.242	0.05
812.546	0.05
812.849	0.04
813.152	0.05
813.455	0.05
813.758	0.04
814.06	0.04
814.363	0.04
814.666	0.05
814.969	0.05
815.271	0.05
815.574	0.05
815.877	0.04
816.179	0.04
816.481	0.04
816.784	0.04
817.086	0.03
817.388	0.04
817.69	0.04
817.993	0.03
818.295	0.04
818.597	0.04
818.899	0.03
819.2	0.03
819.502	0.03
819.804	0.03
820.106	0.03
820.407	0.02
820.709	0.03
821.01	0.03
821.312	0.03
821.613	0.02
821.915	0.03
822.216	0.02
822.517	0.02
822.818	0.02
823.119	0.03
823.42	0.03
823.721	0.02
824.022	0.02
824.323	0.02
824.624	0.02
824.925	0.02
825.226	0.03
825.526	0.02
825.827	0.02
826.127	0.02
826.428	0.02
826.728	0.02
827.028	0.02
827.329	0.02
827.629	0.01
827.929	0.02
828.229	0.02
828.529	0.03
828.829	0.02
829.129	0.02
829.429	0.02
829.729	0.03
830.029	0.01
830.328	0.02
830.628	0.01
830.927	0.01
831.227	0.01
831.526	0.01
831.826	0.02
832.125	0.02
832.424	0.01
832.724	0.01
833.023	0.01
833.322	0.01
833.621	0.01
833.92	0.01
834.219	0.01
834.518	0
834.816	0.01
835.115	0.01
835.414	0.01
835.712	0
836.011	0
836.309	0
836.608	-0
836.906	-0
837.205	-0.01
837.503	-0.01
837.801	-0.01
838.099	-0.02
838.397	-0.02
838.695	-0.02
838.993	-0.02
839.291	-0.03
839.589	-0.03
839.887	-0.02
840.184	-0.02
840.482	-0.04
840.78	-0.03
841.077	-0.03
841.375	-0.03
841.672	-0.03
841.969	-0.04
842.267	-0.03
842.564	-0.04
842.861	-0.03
843.158	-0.05
843.455	-0.06
843.752	-0.05
844.049	-0.04
844.346	-0.04
844.643	-0.05
844.94	-0.05
845.236	-0.04
845.533	-0.04
845.83	-0.04
846.126	-0.04
846.423	-0.05
846.719	-0.06
847.015	-0.05
847.312	-0.05
847.608	-0.06
847.904	-0.06
848.2	-0.06
848.496	-0.06
848.792	-0.06
849.088	-0.05
849.384	-0.07
849.68	-0.07
849.975	-0.07
850.271	-0.07
850.567	-0.07
850.862	-0.08
851.158	-0.08
851.453	-0.08
851.748	-0.09
852.044	-0.08
852.339	-0.09
852.634	-0.1
852.929	-0.09
853.224	-0.1
853.519	-0.1
853.814	-0.09
854.109	-0.09
854.404	-0.1
854.699	-0.1
854.994	-0.11
855.288	-0.1
855.583	-0.1
855.877	-0.11
856.172	-0.1
856.466	-0.11
856.76	-0.12
857.055	-0.11
857.349	-0.13
857.643	-0.12
857.937	-0.13
858.231	-0.13
858.525	-0.12
858.819	-0.13
859.113	-0.14
859.407	-0.13
859.701	-0.14
859.994	-0.14
860.288	-0.13
860.581	-0.13
860.875	-0.13
861.168	-0.13
861.462	-0.13
861.755	-0.12
862.048	-0.14
862.341	-0.12
862.634	-0.13
862.928	-0.13
863.221	-0.13
863.513	-0.14
863.806	-0.14
864.099	-0.14
864.392	-0.14
864.685	-0.12
864.977	-0.13
865.27	-0.14
865.562	-0.13
865.855	-0.12
866.147	-0.13
866.44	-0.13
866.732	-0.13
867.024	-0.14
867.316	-0.14
867.608	-0.14
867.9	-0.14
868.192	-0.15
868.484	-0.14
868.776	-0.14
869.068	-0.14
869.359	-0.14
869.651	-0.15
869.943	-0.15
870.234	-0.15
870.526	-0.16
870.817	-0.15
871.108	-0.14
871.4	-0.14
871.691	-0.15
871.982	-0.15
872.273	-0.17
872.564	-0.16
872.855	-0.15
873.146	-0.16
873.437	-0.17
873.728	-0.17
874.019	-0.15
874.309	-0.16
874.6	-0.16
874.89	-0.17
875.181	-0.17
875.471	-0.16
875.762	-0.17
876.052	-0.16
876.342	-0.14
876.632	-0.16
876.922	-0.16
877.213	-0.17
877.503	-0.19
877.792	-0.17
878.082	-0.18
878.372	-0.16
878.662	-0.18
878.952	-0.17
879.241	-0.18
879.531	-0.17
879.82	-0.16
880.11	-0.18
880.399	-0.19
880.688	-0.17
880.978	-0.17
881.267	-0.17
