Data from 12-12-AQDScycling_Absorbance__46__00046.txt Node

Date: Tue Dec 12 11:10:08 EST 2023
User: kyuminlee
Spectrometer: FLMS00943
Trigger mode: 0
Integration Time (sec): 1.000000E-1
Scans to average: 1
Electric dark correction enabled: true
Nonlinearity correction enabled: false
Boxcar width: 0
XAxis mode: Wavelengths
Number of Pixels in Spectrum: 2048
>>>>>Begin Spectral Data<<<<<
179.651	-0.14
180.037	-0.14
180.424	-0.14
180.81	-0
181.197	0.14
181.583	-0.68
181.97	-0.39
182.356	-0.57
182.743	-0.34
183.129	0.07
183.515	0.44
183.901	-2.16
184.288	0.68
184.674	-0
185.06	-0.64
185.446	-0
185.832	-0.99
186.218	1.09
186.604	-0
186.99	-0.63
187.376	-0
187.762	-0
188.148	0.37
188.534	-0.38
188.92	0.19
189.305	0.1
189.691	0.12
190.077	0.17
190.463	0.12
190.848	0.03
191.234	0.05
191.619	0.11
192.005	0.21
192.391	0.16
192.776	0.13
193.161	0.22
193.547	0.03
193.932	0.16
194.318	0.04
194.703	0.28
195.088	0.21
195.473	0.34
195.859	0.25
196.244	0.16
196.629	0.15
197.014	-0.04
197.399	0.11
197.784	0.12
198.169	0.12
198.554	0.27
198.939	0.15
199.324	0.35
199.709	0.07
200.094	0.11
200.478	0.1
200.863	0.25
201.248	0.26
201.633	0.22
202.017	0.3
202.402	0.2
202.787	0.13
203.171	0.18
203.556	0.31
203.94	0.2
204.325	0.31
204.709	0.22
205.093	0.13
205.478	0.19
205.862	0.15
206.246	0.24
206.631	0.03
207.015	0.05
207.399	0.36
207.783	0.23
208.167	0.13
208.551	0.19
208.935	0.11
209.319	0.16
209.703	0.14
210.087	0.11
210.471	0.17
210.855	0.18
211.239	0.39
211.623	0.29
212.007	0.37
212.39	0.35
212.774	0.13
213.158	0.17
213.541	0.26
213.925	0.17
214.309	0.23
214.692	0.29
215.076	0.2
215.459	0.29
215.842	0.12
216.226	0.3
216.609	0.42
216.993	0.22
217.376	0.45
217.759	0.22
218.142	0.37
218.525	0.41
218.909	0.47
219.292	0.37
219.675	0.38
220.058	0.49
220.441	0.58
220.824	0.48
221.207	0.59
221.59	0.48
221.973	0.59
222.355	0.76
222.738	0.69
223.121	0.51
223.504	0.55
223.886	0.74
224.269	0.73
224.652	0.6
225.034	0.85
225.417	0.7
225.799	0.81
226.182	0.9
226.564	0.79
226.947	0.79
227.329	0.81
227.711	0.95
228.094	0.86
228.476	1.04
228.858	1.02
229.24	0.84
229.623	0.86
230.005	0.8
230.387	0.98
230.769	0.86
231.151	1
231.533	0.96
231.915	0.92
232.297	1.11
232.679	0.99
233.061	1.12
233.442	1.01
233.824	1.19
234.206	1.29
234.588	1.08
234.969	1.16
235.351	0.97
235.733	1.1
236.114	1.19
236.496	1.07
236.877	1.16
237.259	1
237.64	1.02
238.022	1.19
238.403	0.93
238.784	0.92
239.165	0.93
239.547	1.23
239.928	1.06
240.309	1.13
240.69	1.16
241.071	1.08
241.452	1.16
241.834	1.03
242.215	1.12
242.595	1.07
242.976	1.14
243.357	1.16
243.738	1.3
244.119	1.22
244.5	1.11
244.881	1.22
245.261	1.31
245.642	1.14
246.023	1.24
246.403	1.12
246.784	1.3
247.164	1.35
247.545	1.31
247.925	1.54
248.306	1.28
248.686	1.29
249.067	1.3
249.447	1.3
249.827	1.55
250.207	1.41
250.588	1.25
250.968	1.41
251.348	1.26
251.728	1.57
252.108	1.39
252.488	1.23
252.868	1.34
253.248	1.35
253.628	1.36
254.008	1.41
254.388	1.33
254.768	1.36
255.147	1.34
255.527	1.42
255.907	1.36
256.287	1.29
256.666	1.39
257.046	1.46
257.425	1.54
257.805	1.4
258.184	1.42
258.564	1.47
258.943	1.42
259.323	1.5
259.702	1.59
260.081	1.43
260.461	1.52
260.84	1.63
261.219	1.69
261.598	1.65
261.977	1.42
262.356	1.54
262.736	1.55
263.115	1.54
263.494	1.39
263.873	1.54
264.251	1.49
264.63	1.65
265.009	1.37
265.388	1.53
265.767	1.37
266.145	1.5
266.524	1.38
266.903	1.44
267.281	1.32
267.66	1.5
268.039	1.48
268.417	1.4
268.796	1.39
269.174	1.32
269.552	1.31
269.931	1.59
270.309	1.55
270.687	1.62
271.066	1.44
271.444	1.41
271.822	1.61
272.2	1.41
272.578	1.41
272.956	1.39
273.334	1.39
273.712	1.41
274.09	1.45
274.468	1.53
274.846	1.35
275.224	1.37
275.602	1.47
275.98	1.93
276.357	1.58
276.735	1.63
277.113	1.48
277.49	1.38
277.868	1.19
278.246	1.39
278.623	1.33
279.001	1.44
279.378	1.51
279.756	1.44
280.133	1.6
280.51	1.43
280.888	1.5
281.265	1.38
281.642	1.47
282.019	1.52
282.396	1.6
282.773	1.54
283.151	1.66
283.528	1.52
283.905	1.67
284.282	1.48
284.659	1.67
285.035	1.53
285.412	1.35
285.789	1.46
286.166	1.46
286.543	1.48
286.919	1.53
287.296	1.41
287.673	1.7
288.049	1.5
288.426	1.55
288.802	1.73
289.179	1.44
289.555	1.7
289.932	1.48
290.308	1.36
290.684	1.46
291.061	1.41
291.437	1.54
291.813	1.37
292.189	1.24
292.565	1.37
292.942	1.31
293.318	1.43
293.694	1.4
294.07	1.33
294.446	1.42
294.822	1.68
295.197	1.37
295.573	1.42
295.949	1.41
296.325	1.52
296.701	1.57
297.076	1.46
297.452	1.61
297.828	1.56
298.203	1.55
298.579	1.49
298.954	1.47
299.33	1.43
299.705	1.54
300.081	1.42
300.456	1.54
300.831	1.39
301.206	1.45
301.582	1.53
301.957	1.46
302.332	1.66
302.707	1.4
303.082	1.5
303.457	1.48
303.832	1.46
304.207	1.36
304.582	1.44
304.957	1.4
305.332	1.44
305.707	1.41
306.082	1.5
306.456	1.44
306.831	1.44
307.206	1.5
307.58	1.48
307.955	1.43
308.33	1.38
308.704	1.43
309.079	1.3
309.453	1.49
309.828	1.45
310.202	1.41
310.576	1.48
310.951	1.47
311.325	1.5
311.699	1.48
312.073	1.33
312.447	1.45
312.821	1.34
313.196	1.58
313.57	1.44
313.944	1.34
314.317	1.29
314.691	1.39
315.065	1.5
315.439	1.5
315.813	1.42
316.187	1.39
316.56	1.56
316.934	1.45
317.308	1.4
317.681	1.37
318.055	1.43
318.428	1.49
318.802	1.52
319.175	1.35
319.549	1.45
319.922	1.31
320.295	1.43
320.669	1.68
321.042	1.39
321.415	1.62
321.788	1.38
322.162	1.42
322.535	1.57
322.908	1.49
323.281	1.47
323.654	1.55
324.027	1.4
324.4	1.46
324.773	1.52
325.145	1.42
325.518	1.4
325.891	1.52
326.264	1.65
326.636	1.44
327.009	1.4
327.382	1.42
327.754	1.54
328.127	1.38
328.499	1.47
328.872	1.53
329.244	1.49
329.616	1.45
329.989	1.44
330.361	1.43
330.733	1.44
331.106	1.42
331.478	1.66
331.85	1.52
332.222	1.47
332.594	1.48
332.966	1.45
333.338	1.54
333.71	1.53
334.082	1.54
334.454	1.42
334.826	1.41
335.197	1.56
335.569	1.42
335.941	1.36
336.312	1.45
336.684	1.37
337.056	1.41
337.427	1.54
337.799	1.51
338.17	1.56
338.542	1.53
338.913	1.48
339.284	1.51
339.656	1.47
340.027	1.55
340.398	1.57
340.769	1.45
341.141	1.67
341.512	1.42
341.883	1.47
342.254	1.36
342.625	1.62
342.996	1.54
343.367	1.56
343.738	1.59
344.108	1.44
344.479	1.6
344.85	1.41
345.221	1.6
345.591	1.49
345.962	1.44
346.333	1.4
346.703	1.34
347.074	1.38
347.444	1.32
347.815	1.35
348.185	1.47
348.556	1.29
348.926	1.43
349.296	1.33
349.666	1.34
350.037	1.25
350.407	1.28
350.777	1.45
351.147	1.43
351.517	1.35
351.887	1.43
352.257	1.34
352.627	1.29
352.997	1.25
353.367	1.33
353.737	1.44
354.106	1.31
354.476	1.27
354.846	1.47
355.216	1.42
355.585	1.36
355.955	1.44
356.324	1.45
356.694	1.47
357.063	1.37
357.433	1.29
357.802	1.37
358.171	1.37
358.541	1.37
358.91	1.3
359.279	1.31
359.648	1.34
360.017	1.38
360.387	1.43
360.756	1.25
361.125	1.34
361.494	1.33
361.863	1.28
362.231	1.35
362.6	1.4
362.969	1.25
363.338	1.23
363.707	1.37
364.075	1.37
364.444	1.24
364.813	1.3
365.181	1.33
365.55	1.32
365.918	1.39
366.287	1.33
366.655	1.37
367.024	1.31
367.392	1.36
367.76	1.28
368.128	1.4
368.497	1.28
368.865	1.25
369.233	1.31
369.601	1.35
369.969	1.35
370.337	1.41
370.705	1.25
371.073	1.37
371.441	1.3
371.809	1.2
372.177	1.28
372.544	1.36
372.912	1.3
373.28	1.29
373.647	1.34
374.015	1.37
374.383	1.34
374.75	1.43
375.118	1.35
375.485	1.38
375.853	1.4
376.22	1.3
376.587	1.33
376.955	1.43
377.322	1.42
377.689	1.33
378.056	1.33
378.423	1.33
378.79	1.34
379.157	1.4
379.524	1.44
379.891	1.45
380.258	1.44
380.625	1.3
380.992	1.38
381.359	1.41
381.726	1.49
382.092	1.38
382.459	1.4
382.826	1.46
383.192	1.4
383.559	1.46
383.925	1.58
384.292	1.41
384.658	1.53
385.025	1.4
385.391	1.5
385.757	1.58
386.123	1.46
386.49	1.42
386.856	1.45
387.222	1.57
387.588	1.47
387.954	1.57
388.32	1.53
388.686	1.53
389.052	1.48
389.418	1.55
389.784	1.44
390.15	1.65
390.515	1.29
390.881	1.56
391.247	1.46
391.613	1.52
391.978	1.4
392.344	1.61
392.709	1.49
393.075	1.53
393.44	1.49
393.806	1.63
394.171	1.36
394.536	1.43
394.902	1.44
395.267	1.39
395.632	1.43
395.997	1.47
396.362	1.37
396.727	1.47
397.092	1.52
397.457	1.4
397.822	1.38
398.187	1.39
398.552	1.51
398.917	1.43
399.282	1.43
399.646	1.4
400.011	1.62
400.376	1.36
400.74	1.4
401.105	1.38
401.47	1.51
401.834	1.41
402.199	1.39
402.563	1.41
402.927	1.33
403.292	1.51
403.656	1.37
404.02	1.48
404.384	1.52
404.749	1.39
405.113	1.37
405.477	1.42
405.841	1.36
406.205	1.43
406.569	1.36
406.933	1.4
407.296	1.33
407.66	1.39
408.024	1.34
408.388	1.36
408.752	1.33
409.115	1.38
409.479	1.32
409.842	1.27
410.206	1.3
410.569	1.3
410.933	1.23
411.296	1.2
411.66	1.28
412.023	1.22
412.386	1.18
412.749	1.14
413.113	1.23
413.476	1.22
413.839	1.23
414.202	1.23
414.565	1.12
414.928	1.16
415.291	1.11
415.654	1.18
416.017	1.21
416.38	1.16
416.742	1.14
417.105	1.18
417.468	1.14
417.83	1.16
418.193	1.26
418.556	1.11
418.918	1.04
419.281	1.19
419.643	1.18
420.005	1.15
420.368	1.13
420.73	1.09
421.092	1.17
421.455	1.15
421.817	1.08
422.179	1.11
422.541	1.16
422.903	1.18
423.265	1.13
423.627	1.12
423.989	1.08
424.351	1.05
424.713	1.11
425.075	1.1
425.436	1.1
425.798	1.08
426.16	1.12
426.521	1.09
426.883	1.09
427.245	1.09
427.606	1.04
427.967	1.03
428.329	1.07
428.69	1.09
429.052	1.03
429.413	1.12
429.774	1.1
430.135	1.05
430.497	1.06
430.858	1.09
431.219	1.02
431.58	1.03
431.941	0.99
432.302	1.05
432.663	1.05
433.024	1.06
433.384	1.04
433.745	1.03
434.106	1.09
434.467	1.06
434.827	1.04
435.188	1.04
435.548	1.04
435.909	1.02
436.269	1.04
436.63	1
436.99	0.98
437.351	0.96
437.711	0.99
438.071	0.98
438.431	0.97
438.792	0.95
439.152	0.95
439.512	0.93
439.872	0.93
440.232	0.98
440.592	0.98
440.952	0.94
441.312	0.91
441.671	0.93
442.031	0.91
442.391	0.92
442.751	0.94
443.11	0.92
443.47	0.88
443.83	0.88
444.189	0.87
444.549	0.87
444.908	0.89
445.267	0.88
445.627	0.86
445.986	0.89
446.345	0.87
446.705	0.87
447.064	0.88
447.423	0.85
447.782	0.85
448.141	0.85
448.5	0.82
448.859	0.83
449.218	0.84
449.577	0.84
449.936	0.83
450.295	0.82
450.653	0.8
451.012	0.82
451.371	0.8
451.729	0.8
452.088	0.79
452.447	0.79
452.805	0.79
453.163	0.8
453.522	0.78
453.88	0.75
454.239	0.76
454.597	0.74
454.955	0.73
455.313	0.73
455.671	0.74
456.029	0.73
456.388	0.72
456.746	0.71
457.104	0.71
457.461	0.68
457.819	0.69
458.177	0.67
458.535	0.67
458.893	0.67
459.25	0.67
459.608	0.64
459.966	0.65
460.323	0.62
460.681	0.63
461.038	0.61
461.396	0.62
461.753	0.61
462.111	0.6
462.468	0.59
462.825	0.58
463.182	0.59
463.54	0.57
463.897	0.58
464.254	0.56
464.611	0.57
464.968	0.56
465.325	0.55
465.682	0.54
466.039	0.53
466.395	0.52
466.752	0.52
467.109	0.52
467.466	0.51
467.822	0.51
468.179	0.5
468.535	0.48
468.892	0.49
469.248	0.47
469.605	0.47
469.961	0.47
470.318	0.48
470.674	0.46
471.03	0.45
471.386	0.46
471.743	0.43
472.099	0.43
472.455	0.43
472.811	0.42
473.167	0.41
473.523	0.41
473.879	0.4
474.235	0.4
474.59	0.39
474.946	0.39
475.302	0.39
475.657	0.37
476.013	0.38
476.369	0.37
476.724	0.37
477.08	0.36
477.435	0.36
477.791	0.36
478.146	0.35
478.501	0.35
478.857	0.35
479.212	0.34
479.567	0.33
479.922	0.32
480.277	0.32
480.632	0.31
480.987	0.31
481.342	0.31
481.697	0.3
482.052	0.29
482.407	0.29
482.762	0.29
483.116	0.29
483.471	0.28
483.826	0.27
484.18	0.27
484.535	0.27
484.89	0.27
485.244	0.27
485.598	0.27
485.953	0.26
486.307	0.27
486.661	0.26
487.016	0.25
487.37	0.25
487.724	0.25
488.078	0.25
488.432	0.25
488.786	0.24
489.14	0.24
489.494	0.24
489.848	0.22
490.202	0.23
490.556	0.23
490.91	0.23
491.263	0.23
491.617	0.23
491.971	0.22
492.324	0.22
492.678	0.22
493.031	0.22
493.385	0.22
493.738	0.21
494.091	0.21
494.445	0.21
494.798	0.21
495.151	0.2
495.504	0.2
495.857	0.2
496.21	0.21
496.564	0.2
496.916	0.21
497.269	0.19
497.622	0.2
497.975	0.2
498.328	0.21
498.681	0.2
499.033	0.19
499.386	0.19
499.739	0.2
500.091	0.19
500.444	0.19
500.796	0.19
501.149	0.19
501.501	0.19
501.854	0.18
502.206	0.19
502.558	0.19
502.91	0.19
503.263	0.19
503.615	0.18
503.967	0.18
504.319	0.18
504.671	0.18
505.023	0.18
505.375	0.18
505.726	0.18
506.078	0.18
506.43	0.17
506.782	0.17
507.133	0.17
507.485	0.17
507.837	0.18
508.188	0.17
508.54	0.18
508.891	0.18
509.243	0.16
509.594	0.17
509.945	0.17
510.296	0.16
510.648	0.17
510.999	0.17
511.35	0.16
511.701	0.17
512.052	0.17
512.403	0.17
512.754	0.16
513.105	0.16
513.456	0.16
513.807	0.15
514.157	0.16
514.508	0.16
514.859	0.15
515.209	0.15
515.56	0.16
515.91	0.15
516.261	0.16
516.611	0.16
516.962	0.16
517.312	0.16
517.662	0.16
518.013	0.15
518.363	0.16
518.713	0.16
519.063	0.16
519.413	0.16
519.763	0.16
520.113	0.16
520.463	0.16
520.813	0.16
521.163	0.16
521.512	0.16
521.862	0.16
522.212	0.16
522.562	0.16
522.911	0.16
523.261	0.16
523.61	0.16
523.96	0.16
524.309	0.16
524.658	0.16
525.008	0.16
525.357	0.16
525.706	0.16
526.056	0.16
526.405	0.16
526.754	0.16
527.103	0.16
527.452	0.16
527.801	0.17
528.15	0.16
528.499	0.16
528.847	0.16
529.196	0.16
529.545	0.17
529.893	0.17
530.242	0.16
530.591	0.17
530.939	0.17
531.288	0.16
531.636	0.17
531.985	0.16
532.333	0.16
532.681	0.17
533.029	0.16
533.378	0.16
533.726	0.16
534.074	0.17
534.422	0.16
534.77	0.17
535.118	0.16
535.466	0.16
535.814	0.16
536.162	0.17
536.509	0.17
536.857	0.16
537.205	0.17
537.552	0.17
537.9	0.17
538.248	0.16
538.595	0.17
538.943	0.16
539.29	0.16
539.637	0.15
539.985	0.16
540.332	0.16
540.679	0.16
541.026	0.16
541.373	0.17
541.721	0.15
542.068	0.16
542.415	0.16
542.762	0.16
543.108	0.16
543.455	0.15
543.802	0.16
544.149	0.16
544.496	0.16
544.842	0.15
545.189	0.15
545.535	0.16
545.882	0.16
546.228	0.16
546.575	0.15
546.921	0.16
547.267	0.16
547.614	0.16
547.96	0.15
548.306	0.16
548.652	0.16
548.998	0.16
549.344	0.16
549.69	0.16
550.036	0.16
550.382	0.16
550.728	0.16
551.074	0.16
551.42	0.16
551.765	0.16
552.111	0.17
552.457	0.17
552.802	0.16
553.148	0.17
553.493	0.16
553.839	0.17
554.184	0.17
554.529	0.17
554.875	0.17
555.22	0.17
555.565	0.17
555.91	0.16
556.255	0.18
556.6	0.18
556.945	0.17
557.29	0.16
557.635	0.17
557.98	0.16
558.325	0.16
558.67	0.16
559.014	0.16
559.359	0.16
559.704	0.16
560.048	0.15
560.393	0.16
560.737	0.15
561.082	0.16
561.426	0.15
561.77	0.17
562.115	0.15
562.459	0.17
562.803	0.16
563.147	0.16
563.491	0.16
563.835	0.17
564.179	0.15
564.523	0.16
564.867	0.16
565.211	0.16
565.555	0.16
565.899	0.18
566.242	0.16
566.586	0.16
566.93	0.16
567.273	0.17
567.617	0.17
567.96	0.17
568.304	0.17
568.647	0.16
568.99	0.17
569.334	0.17
569.677	0.17
570.02	0.18
570.363	0.17
570.706	0.17
571.049	0.17
571.392	0.18
571.735	0.16
572.078	0.18
572.421	0.17
572.764	0.17
573.106	0.18
573.449	0.16
573.792	0.17
574.134	0.17
574.477	0.18
574.819	0.17
575.162	0.16
575.504	0.17
575.847	0.17
576.189	0.17
576.531	0.17
576.873	0.17
577.215	0.16
577.558	0.17
577.9	0.16
578.242	0.16
578.584	0.16
578.926	0.16
579.267	0.16
579.609	0.16
579.951	0.17
580.293	0.16
580.634	0.17
580.976	0.16
581.318	0.16
581.659	0.16
582.001	0.17
582.342	0.16
582.683	0.17
583.025	0.16
583.366	0.16
583.707	0.17
584.049	0.17
584.39	0.16
584.731	0.17
585.072	0.16
585.413	0.17
585.754	0.17
586.095	0.17
586.435	0.17
586.776	0.16
587.117	0.16
587.458	0.16
587.798	0.15
588.139	0.16
588.48	0.16
588.82	0.16
589.161	0.16
589.501	0.15
589.841	0.15
590.182	0.16
590.522	0.16
590.862	0.15
591.202	0.16
591.542	0.15
591.882	0.16
592.222	0.16
592.562	0.16
592.902	0.15
593.242	0.15
593.582	0.16
593.922	0.16
594.261	0.15
594.601	0.15
594.941	0.15
595.28	0.15
595.62	0.16
595.959	0.16
596.299	0.15
596.638	0.16
596.977	0.16
597.317	0.16
597.656	0.15
597.995	0.16
598.334	0.17
598.673	0.16
599.012	0.16
599.351	0.16
599.69	0.16
600.029	0.17
600.368	0.16
600.707	0.15
601.046	0.16
601.384	0.16
601.723	0.16
602.061	0.15
602.4	0.15
602.738	0.16
603.077	0.15
603.415	0.15
603.754	0.16
604.092	0.16
604.43	0.15
604.768	0.16
605.107	0.16
605.445	0.16
605.783	0.16
606.121	0.16
606.459	0.16
606.796	0.17
607.134	0.16
607.472	0.16
607.81	0.16
608.148	0.15
608.485	0.17
608.823	0.16
609.16	0.15
609.498	0.16
609.835	0.16
610.173	0.16
610.51	0.16
610.847	0.17
611.185	0.16
611.522	0.17
611.859	0.17
612.196	0.17
612.533	0.18
612.87	0.17
613.207	0.18
613.544	0.18
613.881	0.18
614.217	0.18
614.554	0.17
614.891	0.16
615.228	0.16
615.564	0.16
615.901	0.17
616.237	0.17
616.574	0.16
616.91	0.16
617.246	0.16
617.583	0.16
617.919	0.17
618.255	0.17
618.591	0.17
618.927	0.17
619.263	0.17
619.599	0.17
619.935	0.17
620.271	0.17
620.607	0.17
620.943	0.16
621.279	0.17
621.614	0.16
621.95	0.16
622.286	0.15
622.621	0.15
622.957	0.15
623.292	0.16
623.627	0.15
623.963	0.16
624.298	0.15
624.633	0.16
624.968	0.15
625.304	0.16
625.639	0.15
625.974	0.15
626.309	0.15
626.644	0.15
626.979	0.17
627.313	0.15
627.648	0.15
627.983	0.16
628.318	0.15
628.652	0.15
628.987	0.15
629.321	0.15
629.656	0.15
629.99	0.15
630.325	0.16
630.659	0.15
630.993	0.15
631.327	0.15
631.662	0.14
631.996	0.14
632.33	0.15
632.664	0.15
632.998	0.14
633.332	0.14
633.666	0.14
633.999	0.15
634.333	0.14
634.667	0.14
635.001	0.14
635.334	0.14
635.668	0.14
636.001	0.13
636.335	0.13
636.668	0.14
637.001	0.13
637.335	0.14
637.668	0.14
638.001	0.13
638.334	0.13
638.668	0.14
639.001	0.14
639.334	0.14
639.667	0.14
639.999	0.14
640.332	0.14
640.665	0.13
640.998	0.14
641.331	0.14
641.663	0.14
641.996	0.14
642.328	0.15
642.661	0.14
642.993	0.14
643.326	0.14
643.658	0.14
643.99	0.13
644.323	0.13
644.655	0.14
644.987	0.14
645.319	0.14
645.651	0.14
645.983	0.14
646.315	0.14
646.647	0.14
646.979	0.15
647.31	0.15
647.642	0.13
647.974	0.14
648.305	0.15
648.637	0.14
648.968	0.15
649.3	0.15
649.631	0.14
649.963	0.14
650.294	0.14
650.625	0.14
650.957	0.15
651.288	0.14
651.619	0.14
651.95	0.14
652.281	0.14
652.612	0.14
652.943	0.13
653.274	0.14
653.604	0.14
653.935	0.13
654.266	0.14
654.596	0.13
654.927	0.13
655.258	0.14
655.588	0.14
655.918	0.14
656.249	0.12
656.579	0.13
656.909	0.13
657.24	0.13
657.57	0.14
657.9	0.13
658.23	0.13
658.56	0.14
658.89	0.14
659.22	0.13
659.55	0.13
659.88	0.14
660.209	0.14
660.539	0.14
660.869	0.14
661.198	0.13
661.528	0.13
661.857	0.13
662.187	0.13
662.516	0.13
662.846	0.13
663.175	0.13
663.504	0.13
663.833	0.13
664.163	0.13
664.492	0.13
664.821	0.13
665.15	0.13
665.479	0.13
665.807	0.13
666.136	0.13
666.465	0.13
666.794	0.13
667.122	0.13
667.451	0.12
667.78	0.13
668.108	0.13
668.437	0.13
668.765	0.13
669.093	0.13
669.422	0.12
669.75	0.13
670.078	0.12
670.406	0.13
670.734	0.13
671.062	0.13
671.39	0.12
671.718	0.12
672.046	0.12
672.374	0.12
672.702	0.12
673.029	0.11
673.357	0.13
673.685	0.13
674.012	0.12
674.34	0.12
674.667	0.13
674.995	0.13
675.322	0.13
675.649	0.11
675.977	0.12
676.304	0.12
676.631	0.12
676.958	0.12
677.285	0.1
677.612	0.11
677.939	0.11
678.266	0.11
678.593	0.11
678.92	0.11
679.246	0.11
679.573	0.11
679.9	0.11
680.226	0.11
680.553	0.1
680.879	0.1
681.206	0.11
681.532	0.1
681.858	0.1
682.184	0.1
682.511	0.1
682.837	0.11
683.163	0.1
683.489	0.11
683.815	0.11
684.141	0.11
684.467	0.1
684.793	0.1
685.118	0.11
685.444	0.11
685.77	0.11
686.095	0.1
686.421	0.1
686.746	0.11
687.072	0.1
687.397	0.1
687.723	0.11
688.048	0.11
688.373	0.1
688.698	0.1
689.023	0.1
689.349	0.1
689.674	0.11
689.999	0.1
690.323	0.09
690.648	0.09
690.973	0.09
691.298	0.09
691.623	0.09
691.947	0.09
692.272	0.09
692.596	0.1
692.921	0.09
693.245	0.09
693.57	0.1
693.894	0.09
694.218	0.09
694.543	0.09
694.867	0.09
695.191	0.09
695.515	0.1
695.839	0.08
696.163	0.09
696.487	0.09
696.811	0.09
697.135	0.1
697.458	0.09
697.782	0.09
698.106	0.09
698.429	0.09
698.753	0.09
699.076	0.09
699.4	0.09
699.723	0.09
700.046	0.09
700.37	0.1
700.693	0.1
701.016	0.09
701.339	0.09
701.662	0.1
701.985	0.1
702.308	0.09
702.631	0.1
702.954	0.1
703.277	0.1
703.599	0.09
703.922	0.08
704.245	0.09
704.567	0.08
704.89	0.09
705.212	0.09
705.535	0.08
705.857	0.08
706.179	0.08
706.502	0.08
706.824	0.08
707.146	0.07
707.468	0.08
707.79	0.08
708.112	0.08
708.434	0.08
708.756	0.08
709.078	0.08
709.399	0.08
709.721	0.07
710.043	0.08
710.364	0.08
710.686	0.07
711.007	0.07
711.329	0.08
711.65	0.08
711.972	0.07
712.293	0.08
712.614	0.08
712.935	0.08
713.256	0.08
713.577	0.09
713.898	0.08
714.219	0.08
714.54	0.09
714.861	0.07
715.182	0.08
715.503	0.07
715.823	0.08
716.144	0.08
716.464	0.07
716.785	0.07
717.105	0.07
717.426	0.08
717.746	0.08
718.066	0.07
718.387	0.06
718.707	0.06
719.027	0.08
719.347	0.06
719.667	0.07
719.987	0.07
720.307	0.07
720.627	0.06
720.947	0.07
721.266	0.06
721.586	0.07
721.906	0.07
722.225	0.06
722.545	0.07
722.864	0.06
723.184	0.07
723.503	0.07
723.823	0.07
724.142	0.06
724.461	0.07
724.78	0.07
725.099	0.06
725.418	0.07
725.737	0.06
726.056	0.07
726.375	0.08
726.694	0.07
727.013	0.07
727.331	0.06
727.65	0.06
727.969	0.07
728.287	0.07
728.606	0.07
728.924	0.06
729.242	0.06
729.561	0.06
729.879	0.06
730.197	0.07
730.515	0.06
730.834	0.06
731.152	0.06
731.47	0.06
731.788	0.06
732.105	0.06
732.423	0.06
732.741	0.05
733.059	0.05
733.376	0.06
733.694	0.05
734.012	0.05
734.329	0.05
734.647	0.06
734.964	0.07
735.281	0.06
735.599	0.06
735.916	0.06
736.233	0.06
736.55	0.06
736.867	0.05
737.184	0.06
737.501	0.06
737.818	0.06
738.135	0.07
738.452	0.06
738.768	0.07
739.085	0.06
739.402	0.05
739.718	0.06
740.035	0.06
740.351	0.06
740.668	0.06
740.984	0.06
741.3	0.06
741.617	0.06
741.933	0.06
742.249	0.06
742.565	0.06
742.881	0.06
743.197	0.06
743.513	0.06
743.829	0.05
744.144	0.07
744.46	0.06
744.776	0.06
745.091	0.06
745.407	0.06
745.722	0.05
746.038	0.05
746.353	0.05
746.669	0.06
746.984	0.05
747.299	0.05
747.614	0.05
747.93	0.05
748.245	0.06
748.56	0.05
748.875	0.05
749.189	0.05
749.504	0.05
749.819	0.06
750.134	0.05
750.448	0.06
750.763	0.06
751.078	0.05
751.392	0.05
751.707	0.06
752.021	0.06
752.335	0.06
752.65	0.06
752.964	0.06
753.278	0.07
753.592	0.06
753.906	0.06
754.22	0.06
754.534	0.06
754.848	0.06
755.162	0.06
755.476	0.06
755.789	0.07
756.103	0.05
756.417	0.06
756.73	0.06
757.044	0.06
757.357	0.06
757.671	0.06
757.984	0.06
758.297	0.06
758.61	0.06
758.924	0.05
759.237	0.05
759.55	0.06
759.863	0.06
760.176	0.06
760.488	0.06
760.801	0.06
761.114	0.05
761.427	0.05
761.739	0.06
762.052	0.05
762.365	0.05
762.677	0.05
762.99	0.04
763.302	0.05
763.614	0.05
763.926	0.05
764.239	0.05
764.551	0.05
764.863	0.05
765.175	0.06
765.487	0.05
765.799	0.05
766.111	0.05
766.423	0.05
766.734	0.05
767.046	0.04
767.358	0.05
767.669	0.05
767.981	0.05
768.292	0.05
768.604	0.05
768.915	0.05
769.226	0.05
769.537	0.03
769.849	0.05
770.16	0.05
770.471	0.03
770.782	0.05
771.093	0.04
771.404	0.03
771.715	0.04
772.025	0.04
772.336	0.04
772.647	0.04
772.957	0.04
773.268	0.04
773.578	0.04
773.889	0.04
774.199	0.05
774.51	0.04
774.82	0.04
775.13	0.04
775.44	0.04
775.75	0.05
776.06	0.05
776.37	0.03
776.68	0.04
776.99	0.04
777.3	0.04
777.61	0.05
777.92	0.04
778.229	0.03
778.539	0.04
778.848	0.04
779.158	0.04
779.467	0.05
779.777	0.04
780.086	0.05
780.395	0.04
780.704	0.04
781.013	0.03
781.323	0.03
781.632	0.04
781.941	0.04
782.249	0.04
782.558	0.03
782.867	0.05
783.176	0.03
783.485	0.04
783.793	0.04
784.102	0.03
784.41	0.03
784.719	0.03
785.027	0.03
785.335	0.04
785.644	0.04
785.952	0.03
786.26	0.04
786.568	0.03
786.876	0.04
787.184	0.04
787.492	0.05
787.8	0.04
788.108	0.04
788.416	0.03
788.723	0.04
789.031	0.04
789.338	0.04
789.646	0.04
789.953	0.04
790.261	0.05
790.568	0.04
790.876	0.05
791.183	0.05
791.49	0.04
791.797	0.05
792.104	0.03
792.411	0.05
792.718	0.04
793.025	0.05
793.332	0.04
793.639	0.05
793.945	0.06
794.252	0.05
794.559	0.05
794.865	0.05
795.172	0.05
795.478	0.04
795.784	0.05
796.091	0.05
796.397	0.05
796.703	0.05
797.009	0.05
797.315	0.05
797.622	0.04
797.927	0.04
798.233	0.04
798.539	0.04
798.845	0.04
799.151	0.04
799.456	0.04
799.762	0.03
800.068	0.03
800.373	0.04
800.679	0.03
800.984	0.04
801.289	0.03
801.595	0.04
801.9	0.03
802.205	0.03
802.51	0.03
802.815	0.03
803.12	0.03
803.425	0.04
803.73	0.03
804.035	0.04
804.339	0.03
804.644	0.03
804.949	0.03
805.253	0.03
805.558	0.04
805.862	0.04
806.167	0.03
806.471	0.03
806.775	0.04
807.08	0.04
807.384	0.04
807.688	0.04
807.992	0.04
808.296	0.04
808.6	0.04
808.904	0.04
809.207	0.03
809.511	0.05
809.815	0.05
810.119	0.04
810.422	0.05
810.726	0.05
811.029	0.05
811.332	0.04
811.636	0.04
811.939	0.05
812.242	0.05
812.546	0.04
812.849	0.04
813.152	0.05
813.455	0.04
813.758	0.05
814.06	0.04
814.363	0.05
814.666	0.05
814.969	0.04
815.271	0.05
815.574	0.04
815.877	0.05
816.179	0.05
816.481	0.04
816.784	0.05
817.086	0.04
817.388	0.04
817.69	0.03
817.993	0.03
818.295	0.03
818.597	0.03
818.899	0.03
819.2	0.03
819.502	0.03
819.804	0.04
820.106	0.03
820.407	0.03
820.709	0.03
821.01	0.03
821.312	0.03
821.613	0.02
821.915	0.02
822.216	0.03
822.517	0.03
822.818	0.03
823.119	0.03
823.42	0.03
823.721	0.02
824.022	0.02
824.323	0.02
824.624	0.02
824.925	0.03
825.226	0.03
825.526	0.02
825.827	0.02
826.127	0.02
826.428	0.03
826.728	0.01
827.028	0.02
827.329	0.02
827.629	0.01
827.929	0.02
828.229	0.02
828.529	0.03
828.829	0.02
829.129	0.02
829.429	0.03
829.729	0.02
830.029	0.01
830.328	0.01
830.628	0.01
830.927	0.01
831.227	0.01
831.526	0.02
831.826	0.02
832.125	0.01
832.424	0.01
832.724	0.02
833.023	0.01
833.322	0.01
833.621	0.01
833.92	0
834.219	0.01
834.518	0.01
834.816	0
835.115	0
835.414	0.01
835.712	0.01
836.011	0.01
836.309	-0
836.608	0
836.906	-0.01
837.205	-0.01
837.503	-0.01
837.801	-0.01
838.099	-0.02
838.397	-0.03
838.695	-0.02
838.993	-0.02
839.291	-0.03
839.589	-0.03
839.887	-0.03
840.184	-0.03
840.482	-0.03
840.78	-0.04
841.077	-0.04
841.375	-0.04
841.672	-0.03
841.969	-0.04
842.267	-0.03
842.564	-0.04
842.861	-0.03
843.158	-0.04
843.455	-0.05
843.752	-0.05
844.049	-0.05
844.346	-0.04
844.643	-0.05
844.94	-0.04
845.236	-0.04
845.533	-0.04
845.83	-0.04
846.126	-0.04
846.423	-0.04
846.719	-0.06
847.015	-0.05
847.312	-0.05
847.608	-0.05
847.904	-0.06
848.2	-0.06
848.496	-0.05
848.792	-0.05
849.088	-0.04
849.384	-0.06
849.68	-0.07
849.975	-0.06
850.271	-0.08
850.567	-0.07
850.862	-0.08
851.158	-0.07
851.453	-0.08
851.748	-0.09
852.044	-0.09
852.339	-0.08
852.634	-0.1
852.929	-0.09
853.224	-0.1
853.519	-0.09
853.814	-0.09
854.109	-0.1
854.404	-0.1
854.699	-0.1
854.994	-0.1
855.288	-0.09
855.583	-0.1
855.877	-0.11
856.172	-0.1
856.466	-0.11
856.76	-0.1
857.055	-0.11
857.349	-0.12
857.643	-0.13
857.937	-0.13
858.231	-0.12
858.525	-0.13
858.819	-0.13
859.113	-0.14
859.407	-0.14
859.701	-0.14
859.994	-0.14
860.288	-0.12
860.581	-0.13
860.875	-0.13
861.168	-0.13
861.462	-0.12
861.755	-0.12
862.048	-0.14
862.341	-0.12
862.634	-0.13
862.928	-0.13
863.221	-0.12
863.513	-0.13
863.806	-0.14
864.099	-0.14
864.392	-0.14
864.685	-0.13
864.977	-0.14
865.27	-0.13
865.562	-0.13
865.855	-0.13
866.147	-0.14
866.44	-0.13
866.732	-0.14
867.024	-0.14
867.316	-0.14
867.608	-0.15
867.9	-0.14
868.192	-0.14
868.484	-0.13
868.776	-0.15
869.068	-0.14
869.359	-0.14
869.651	-0.14
869.943	-0.16
870.234	-0.15
870.526	-0.16
870.817	-0.16
871.108	-0.14
871.4	-0.14
871.691	-0.15
871.982	-0.15
872.273	-0.17
872.564	-0.15
872.855	-0.16
873.146	-0.16
873.437	-0.16
873.728	-0.17
874.019	-0.16
874.309	-0.16
874.6	-0.16
874.89	-0.16
875.181	-0.16
875.471	-0.16
875.762	-0.16
876.052	-0.15
876.342	-0.15
876.632	-0.17
876.922	-0.16
877.213	-0.17
877.503	-0.18
877.792	-0.16
878.082	-0.18
878.372	-0.16
878.662	-0.19
878.952	-0.18
879.241	-0.18
879.531	-0.17
879.82	-0.17
880.11	-0.18
880.399	-0.18
880.688	-0.17
880.978	-0.17
881.267	-0.17
