Data from 12-12-AQDScycling_Absorbance__442__00442.txt Node

Date: Tue Dec 12 12:47:14 EST 2023
User: kyuminlee
Spectrometer: FLMS00943
Trigger mode: 0
Integration Time (sec): 1.000000E-1
Scans to average: 1
Electric dark correction enabled: true
Nonlinearity correction enabled: false
Boxcar width: 0
XAxis mode: Wavelengths
Number of Pixels in Spectrum: 2048
>>>>>Begin Spectral Data<<<<<
179.651	0.09
180.037	0.09
180.424	0.09
180.81	-0.23
181.197	0.03
181.583	-0.02
181.97	-0.44
182.356	-1.19
182.743	-0
183.129	0
183.515	0.99
183.901	-1.32
184.288	0.77
184.674	-0
185.06	-0
185.446	-0.43
185.832	-0.85
186.218	0.59
186.604	-0.09
186.99	-0
187.376	-0
187.762	-0
188.148	-0
188.534	-0.38
188.92	0.07
189.305	0.12
189.691	0.2
190.077	0.16
190.463	0.15
190.848	0.05
191.234	0.11
191.619	0.11
192.005	0.12
192.391	0.18
192.776	0.18
193.161	0.05
193.547	0.14
193.932	0.12
194.318	0.06
194.703	0.18
195.088	0.25
195.473	0.25
195.859	0.12
196.244	0.28
196.629	0.14
197.014	0.28
197.399	0.18
197.784	0.28
198.169	0.14
198.554	0.12
198.939	0.13
199.324	0.17
199.709	0.15
200.094	0.11
200.478	0.07
200.863	0.23
201.248	0.28
201.633	0.28
202.017	0.13
202.402	0.08
202.787	0.15
203.171	0.18
203.556	0.17
203.94	0.13
204.325	0.21
204.709	0.19
205.093	0.16
205.478	0.15
205.862	0.25
206.246	0.46
206.631	0.13
207.015	0.2
207.399	0.16
207.783	0.13
208.167	0.04
208.551	0.19
208.935	0.23
209.319	0.18
209.703	0.27
210.087	0.39
210.471	0.21
210.855	0.12
211.239	0.24
211.623	0.24
212.007	0.22
212.39	0.24
212.774	0.18
213.158	0.14
213.541	0.1
213.925	0.19
214.309	0.34
214.692	0.36
215.076	0.22
215.459	0.12
215.842	0.11
216.226	0.2
216.609	0.29
216.993	0.21
217.376	0.27
217.759	0.25
218.142	0.39
218.525	0.56
218.909	0.31
219.292	0.34
219.675	0.53
220.058	0.51
220.441	0.62
220.824	0.42
221.207	0.64
221.59	0.48
221.973	0.55
222.355	0.73
222.738	0.59
223.121	0.69
223.504	0.63
223.886	0.66
224.269	0.69
224.652	0.63
225.034	0.67
225.417	0.66
225.799	0.85
226.182	0.85
226.564	0.79
226.947	0.79
227.329	0.85
227.711	0.96
228.094	1.03
228.476	1.02
228.858	0.95
229.24	0.83
229.623	0.96
230.005	0.87
230.387	0.94
230.769	0.85
231.151	0.93
231.533	0.99
231.915	0.99
232.297	0.95
232.679	0.93
233.061	1.03
233.442	0.91
233.824	0.98
234.206	1.15
234.588	1.22
234.969	1.02
235.351	0.9
235.733	1.04
236.114	1.05
236.496	1.06
236.877	1.26
237.259	1.06
237.64	0.99
238.022	1.1
238.403	1.08
238.784	1.06
239.165	0.98
239.547	1.15
239.928	1.06
240.309	1.05
240.69	1.07
241.071	1.23
241.452	1.11
241.834	1.08
242.215	1.12
242.595	1.09
242.976	1.09
243.357	1.22
243.738	1.05
244.119	1.25
244.5	1.07
244.881	1.24
245.261	1.22
245.642	1.2
246.023	1.16
246.403	1.24
246.784	1.22
247.164	1.32
247.545	1.37
247.925	1.34
248.306	1.2
248.686	1.35
249.067	1.43
249.447	1.37
249.827	1.75
250.207	1.46
250.588	1.29
250.968	1.39
251.348	1.41
251.728	1.35
252.108	1.38
252.488	1.42
252.868	1.35
253.248	1.37
253.628	1.55
254.008	1.68
254.388	1.42
254.768	1.29
255.147	1.46
255.527	1.27
255.907	1.3
256.287	1.31
256.666	1.52
257.046	1.5
257.425	1.56
257.805	1.4
258.184	1.41
258.564	1.34
258.943	1.41
259.323	1.48
259.702	1.57
260.081	1.52
260.461	1.51
260.84	1.43
261.219	1.62
261.598	1.46
261.977	1.58
262.356	1.49
262.736	1.6
263.115	1.46
263.494	1.45
263.873	1.49
264.251	1.54
264.63	1.75
265.009	1.37
265.388	1.38
265.767	1.34
266.145	1.46
266.524	1.38
266.903	1.5
267.281	1.45
267.66	1.64
268.039	1.5
268.417	1.45
268.796	1.44
269.174	1.32
269.552	1.34
269.931	1.57
270.309	1.55
270.687	1.52
271.066	1.61
271.444	1.33
271.822	1.4
272.2	1.38
272.578	1.39
272.956	1.49
273.334	1.38
273.712	1.39
274.09	1.42
274.468	1.56
274.846	1.31
275.224	1.31
275.602	1.55
275.98	1.5
276.357	1.37
276.735	1.46
277.113	1.44
277.49	1.4
277.868	1.39
278.246	1.45
278.623	1.37
279.001	1.46
279.378	1.36
279.756	1.47
280.133	1.62
280.51	1.37
280.888	1.48
281.265	1.33
281.642	1.52
282.019	1.61
282.396	1.46
282.773	1.44
283.151	1.39
283.528	1.49
283.905	1.35
284.282	1.68
284.659	1.56
285.035	1.34
285.412	1.39
285.789	1.52
286.166	1.41
286.543	1.53
286.919	1.49
287.296	1.49
287.673	1.72
288.049	1.57
288.426	1.6
288.802	1.49
289.179	1.47
289.555	2.11
289.932	1.37
290.308	1.39
290.684	1.45
291.061	1.53
291.437	1.64
291.813	1.31
292.189	1.3
292.565	1.5
292.942	1.35
293.318	1.3
293.694	1.34
294.07	1.24
294.446	1.43
294.822	1.56
295.197	1.55
295.573	1.49
295.949	1.39
296.325	1.45
296.701	1.6
297.076	1.56
297.452	1.49
297.828	1.41
298.203	1.56
298.579	1.4
298.954	1.5
299.33	1.45
299.705	1.63
300.081	1.58
300.456	1.57
300.831	1.43
301.206	1.36
301.582	1.58
301.957	1.5
302.332	1.78
302.707	1.56
303.082	1.37
303.457	1.53
303.832	1.56
304.207	1.4
304.582	1.39
304.957	1.52
305.332	1.65
305.707	1.42
306.082	1.6
306.456	1.5
306.831	1.49
307.206	1.67
307.58	1.55
307.955	1.5
308.33	1.49
308.704	1.42
309.079	1.47
309.453	1.6
309.828	1.5
310.202	1.44
310.576	1.49
310.951	1.61
311.325	1.74
311.699	1.43
312.073	1.37
312.447	1.38
312.821	1.48
313.196	1.44
313.57	1.39
313.944	1.5
314.317	1.36
314.691	1.45
315.065	1.47
315.439	1.62
315.813	1.49
316.187	1.4
316.56	1.54
316.934	1.53
317.308	1.44
317.681	1.5
318.055	1.48
318.428	1.49
318.802	1.51
319.175	1.49
319.549	1.47
319.922	1.35
320.295	1.54
320.669	1.65
321.042	1.5
321.415	1.82
321.788	1.58
322.162	1.53
322.535	1.75
322.908	1.45
323.281	1.43
323.654	1.52
324.027	1.5
324.4	1.6
324.773	1.66
325.145	1.58
325.518	1.44
325.891	1.51
326.264	1.63
326.636	1.45
327.009	1.51
327.382	1.53
327.754	1.7
328.127	1.51
328.499	1.67
328.872	1.52
329.244	1.48
329.616	1.44
329.989	1.48
330.361	1.72
330.733	1.46
331.106	1.36
331.478	1.61
331.85	1.47
332.222	1.39
332.594	1.58
332.966	1.44
333.338	1.7
333.71	1.67
334.082	1.8
334.454	1.51
334.826	1.54
335.197	1.8
335.569	1.61
335.941	1.45
336.312	1.58
336.684	1.47
337.056	1.52
337.427	1.56
337.799	1.72
338.17	1.59
338.542	1.49
338.913	1.57
339.284	1.54
339.656	1.54
340.027	1.66
340.398	1.7
340.769	1.65
341.141	1.77
341.512	1.5
341.883	1.6
342.254	1.49
342.625	1.61
342.996	1.55
343.367	1.69
343.738	1.44
344.108	1.51
344.479	1.87
344.85	1.43
345.221	1.69
345.591	1.31
345.962	1.6
346.333	1.55
346.703	1.27
347.074	1.43
347.444	1.33
347.815	1.45
348.185	1.42
348.556	1.35
348.926	1.24
349.296	1.36
349.666	1.43
350.037	1.24
350.407	1.35
350.777	1.33
351.147	1.53
351.517	1.32
351.887	1.33
352.257	1.44
352.627	1.26
352.997	1.3
353.367	1.44
353.737	1.41
354.106	1.41
354.476	1.25
354.846	1.49
355.216	1.43
355.585	1.4
355.955	1.24
356.324	1.35
356.694	1.32
357.063	1.31
357.433	1.34
357.802	1.31
358.171	1.28
358.541	1.25
358.91	1.27
359.279	1.26
359.648	1.23
360.017	1.26
360.387	1.17
360.756	1.16
361.125	1.29
361.494	1.17
361.863	1.21
362.231	1.15
362.6	1.18
362.969	1.12
363.338	1.12
363.707	1.2
364.075	1.12
364.444	1.02
364.813	1.1
365.181	1.09
365.55	1.08
365.918	1.08
366.287	1.06
366.655	1.07
367.024	1.09
367.392	1.03
367.76	1.07
368.128	1.03
368.497	1.03
368.865	1.03
369.233	1.02
369.601	0.99
369.969	1.03
370.337	1.04
370.705	1.01
371.073	1.03
371.441	1
371.809	0.97
372.177	0.96
372.544	1
372.912	1
373.28	1.02
373.647	1
374.015	1.01
374.383	1.01
374.75	1.03
375.118	0.98
375.485	0.99
375.853	1
376.22	0.96
376.587	0.98
376.955	1
377.322	0.97
377.689	0.98
378.056	0.95
378.423	0.94
378.79	0.98
379.157	0.96
379.524	1.05
379.891	0.94
380.258	1
380.625	1
380.992	0.99
381.359	1.05
381.726	1.06
382.092	0.98
382.459	0.99
382.826	1.01
383.192	1.05
383.559	1.01
383.925	1.04
384.292	1
384.658	1.09
385.025	1.05
385.391	1.05
385.757	1.06
386.123	1.06
386.49	1.07
386.856	1.07
387.222	1.1
387.588	1.08
387.954	1.16
388.32	1.1
388.686	1.08
389.052	1.11
389.418	1.13
389.784	1.1
390.15	1.13
390.515	0.99
390.881	1.18
391.247	1.04
391.613	1.12
391.978	1.11
392.344	1.15
392.709	1.1
393.075	1.11
393.44	1.14
393.806	1.09
394.171	1.03
394.536	1.11
394.902	1.06
395.267	1.07
395.632	1.06
395.997	1.08
396.362	1.04
396.727	1.1
397.092	1.11
397.457	1.04
397.822	1.02
398.187	1.09
398.552	1.02
398.917	1.06
399.282	1
399.646	1
400.011	1.01
400.376	1
400.74	0.99
401.105	0.97
401.47	1
401.834	1
402.199	0.99
402.563	0.97
402.927	0.96
403.292	0.99
403.656	1
404.02	0.99
404.384	0.97
404.749	0.95
405.113	0.92
405.477	0.93
405.841	0.91
406.205	0.93
406.569	0.87
406.933	0.87
407.296	0.9
407.66	0.87
408.024	0.89
408.388	0.89
408.752	0.85
409.115	0.85
409.479	0.9
409.842	0.85
410.206	0.81
410.569	0.83
410.933	0.83
411.296	0.8
411.66	0.82
412.023	0.77
412.386	0.81
412.749	0.78
413.113	0.83
413.476	0.77
413.839	0.79
414.202	0.76
414.565	0.77
414.928	0.78
415.291	0.78
415.654	0.75
416.017	0.73
416.38	0.75
416.742	0.73
417.105	0.73
417.468	0.76
417.83	0.73
418.193	0.76
418.556	0.72
418.918	0.75
419.281	0.74
419.643	0.74
420.005	0.73
420.368	0.71
420.73	0.7
421.092	0.73
421.455	0.72
421.817	0.7
422.179	0.7
422.541	0.7
422.903	0.72
423.265	0.71
423.627	0.69
423.989	0.7
424.351	0.67
424.713	0.67
425.075	0.68
425.436	0.68
425.798	0.68
426.16	0.7
426.521	0.67
426.883	0.67
427.245	0.7
427.606	0.67
427.967	0.65
428.329	0.67
428.69	0.69
429.052	0.68
429.413	0.69
429.774	0.67
430.135	0.68
430.497	0.66
430.858	0.66
431.219	0.64
431.58	0.64
431.941	0.63
432.302	0.65
432.663	0.63
433.024	0.68
433.384	0.64
433.745	0.63
434.106	0.65
434.467	0.62
434.827	0.65
435.188	0.63
435.548	0.66
435.909	0.62
436.269	0.66
436.63	0.62
436.99	0.63
437.351	0.62
437.711	0.64
438.071	0.61
438.431	0.6
438.792	0.61
439.152	0.59
439.512	0.59
439.872	0.59
440.232	0.61
440.592	0.6
440.952	0.59
441.312	0.58
441.671	0.59
442.031	0.57
442.391	0.58
442.751	0.6
443.11	0.56
443.47	0.56
443.83	0.56
444.189	0.56
444.549	0.55
444.908	0.57
445.267	0.55
445.627	0.56
445.986	0.53
446.345	0.52
446.705	0.56
447.064	0.52
447.423	0.53
447.782	0.54
448.141	0.54
448.5	0.51
448.859	0.52
449.218	0.52
449.577	0.54
449.936	0.53
450.295	0.52
450.653	0.51
451.012	0.51
451.371	0.51
451.729	0.5
452.088	0.5
452.447	0.49
452.805	0.51
453.163	0.5
453.522	0.49
453.88	0.47
454.239	0.47
454.597	0.47
454.955	0.47
455.313	0.47
455.671	0.48
456.029	0.46
456.388	0.46
456.746	0.46
457.104	0.44
457.461	0.44
457.819	0.45
458.177	0.43
458.535	0.42
458.893	0.43
459.25	0.43
459.608	0.42
459.966	0.42
460.323	0.4
460.681	0.39
461.038	0.39
461.396	0.39
461.753	0.39
462.111	0.38
462.468	0.38
462.825	0.38
463.182	0.38
463.54	0.38
463.897	0.37
464.254	0.36
464.611	0.36
464.968	0.35
465.325	0.37
465.682	0.35
466.039	0.36
466.395	0.34
466.752	0.34
467.109	0.33
467.466	0.34
467.822	0.34
468.179	0.32
468.535	0.32
468.892	0.33
469.248	0.32
469.605	0.31
469.961	0.31
470.318	0.32
470.674	0.31
471.03	0.3
471.386	0.3
471.743	0.29
472.099	0.3
472.455	0.29
472.811	0.28
473.167	0.28
473.523	0.28
473.879	0.27
474.235	0.26
474.59	0.26
474.946	0.25
475.302	0.26
475.657	0.25
476.013	0.25
476.369	0.24
476.724	0.25
477.08	0.25
477.435	0.24
477.791	0.24
478.146	0.24
478.501	0.23
478.857	0.24
479.212	0.23
479.567	0.22
479.922	0.22
480.277	0.22
480.632	0.22
480.987	0.22
481.342	0.22
481.697	0.21
482.052	0.21
482.407	0.21
482.762	0.2
483.116	0.21
483.471	0.19
483.826	0.19
484.18	0.19
484.535	0.19
484.89	0.19
485.244	0.19
485.598	0.19
485.953	0.18
486.307	0.19
486.661	0.19
487.016	0.18
487.37	0.18
487.724	0.18
488.078	0.18
488.432	0.18
488.786	0.17
489.14	0.18
489.494	0.17
489.848	0.16
490.202	0.16
490.556	0.17
490.91	0.16
491.263	0.16
491.617	0.16
491.971	0.16
492.324	0.16
492.678	0.16
493.031	0.17
493.385	0.15
493.738	0.16
494.091	0.15
494.445	0.16
494.798	0.15
495.151	0.15
495.504	0.15
495.857	0.15
496.21	0.15
496.564	0.15
496.916	0.15
497.269	0.14
497.622	0.15
497.975	0.14
498.328	0.15
498.681	0.14
499.033	0.14
499.386	0.14
499.739	0.14
500.091	0.13
500.444	0.14
500.796	0.14
501.149	0.13
501.501	0.14
501.854	0.14
502.206	0.14
502.558	0.14
502.91	0.13
503.263	0.13
503.615	0.14
503.967	0.13
504.319	0.13
504.671	0.13
505.023	0.13
505.375	0.13
505.726	0.13
506.078	0.12
506.43	0.12
506.782	0.12
507.133	0.12
507.485	0.13
507.837	0.14
508.188	0.13
508.54	0.12
508.891	0.13
509.243	0.13
509.594	0.13
509.945	0.13
510.296	0.12
510.648	0.13
510.999	0.12
511.35	0.11
511.701	0.12
512.052	0.12
512.403	0.12
512.754	0.13
513.105	0.12
513.456	0.12
513.807	0.12
514.157	0.13
514.508	0.12
514.859	0.12
515.209	0.12
515.56	0.12
515.91	0.12
516.261	0.13
516.611	0.12
516.962	0.12
517.312	0.12
517.662	0.13
518.013	0.12
518.363	0.12
518.713	0.13
519.063	0.12
519.413	0.12
519.763	0.12
520.113	0.12
520.463	0.13
520.813	0.13
521.163	0.13
521.512	0.12
521.862	0.12
522.212	0.12
522.562	0.13
522.911	0.12
523.261	0.12
523.61	0.12
523.96	0.12
524.309	0.13
524.658	0.12
525.008	0.12
525.357	0.12
525.706	0.12
526.056	0.12
526.405	0.13
526.754	0.12
527.103	0.12
527.452	0.13
527.801	0.13
528.15	0.13
528.499	0.13
528.847	0.13
529.196	0.13
529.545	0.13
529.893	0.14
530.242	0.12
530.591	0.13
530.939	0.14
531.288	0.13
531.636	0.14
531.985	0.13
532.333	0.13
532.681	0.13
533.029	0.13
533.378	0.14
533.726	0.13
534.074	0.14
534.422	0.13
534.77	0.14
535.118	0.13
535.466	0.13
535.814	0.13
536.162	0.13
536.509	0.13
536.857	0.13
537.205	0.14
537.552	0.13
537.9	0.13
538.248	0.12
538.595	0.13
538.943	0.14
539.29	0.14
539.637	0.14
539.985	0.14
540.332	0.13
540.679	0.13
541.026	0.13
541.373	0.14
541.721	0.13
542.068	0.13
542.415	0.13
542.762	0.12
543.108	0.12
543.455	0.12
543.802	0.12
544.149	0.12
544.496	0.12
544.842	0.12
545.189	0.11
545.535	0.12
545.882	0.13
546.228	0.12
546.575	0.12
546.921	0.12
547.267	0.12
547.614	0.12
547.96	0.12
548.306	0.12
548.652	0.12
548.998	0.13
549.344	0.12
549.69	0.12
550.036	0.13
550.382	0.12
550.728	0.12
551.074	0.13
551.42	0.13
551.765	0.12
552.111	0.13
552.457	0.13
552.802	0.13
553.148	0.13
553.493	0.13
553.839	0.12
554.184	0.13
554.529	0.12
554.875	0.13
555.22	0.14
555.565	0.13
555.91	0.13
556.255	0.13
556.6	0.13
556.945	0.12
557.29	0.12
557.635	0.14
557.98	0.13
558.325	0.13
558.67	0.13
559.014	0.14
559.359	0.12
559.704	0.13
560.048	0.13
560.393	0.13
560.737	0.13
561.082	0.13
561.426	0.12
561.77	0.13
562.115	0.12
562.459	0.13
562.803	0.13
563.147	0.13
563.491	0.14
563.835	0.13
564.179	0.13
564.523	0.13
564.867	0.13
565.211	0.13
565.555	0.13
565.899	0.14
566.242	0.13
566.586	0.12
566.93	0.13
567.273	0.13
567.617	0.13
567.96	0.14
568.304	0.14
568.647	0.13
568.99	0.12
569.334	0.14
569.677	0.14
570.02	0.13
570.363	0.14
570.706	0.13
571.049	0.14
571.392	0.14
571.735	0.13
572.078	0.14
572.421	0.14
572.764	0.13
573.106	0.13
573.449	0.13
573.792	0.13
574.134	0.12
574.477	0.13
574.819	0.13
575.162	0.13
575.504	0.13
575.847	0.13
576.189	0.13
576.531	0.13
576.873	0.13
577.215	0.13
577.558	0.13
577.9	0.13
578.242	0.14
578.584	0.13
578.926	0.13
579.267	0.13
579.609	0.13
579.951	0.13
580.293	0.14
580.634	0.14
580.976	0.14
581.318	0.13
581.659	0.13
582.001	0.13
582.342	0.13
582.683	0.14
583.025	0.13
583.366	0.13
583.707	0.13
584.049	0.13
584.39	0.13
584.731	0.13
585.072	0.12
585.413	0.13
585.754	0.13
586.095	0.13
586.435	0.14
586.776	0.13
587.117	0.13
587.458	0.13
587.798	0.13
588.139	0.13
588.48	0.13
588.82	0.13
589.161	0.13
589.501	0.13
589.841	0.13
590.182	0.12
590.522	0.13
590.862	0.13
591.202	0.13
591.542	0.13
591.882	0.12
592.222	0.13
592.562	0.13
592.902	0.13
593.242	0.13
593.582	0.13
593.922	0.12
594.261	0.13
594.601	0.13
594.941	0.13
595.28	0.12
595.62	0.13
595.959	0.13
596.299	0.12
596.638	0.13
596.977	0.13
597.317	0.14
597.656	0.14
597.995	0.13
598.334	0.13
598.673	0.14
599.012	0.13
599.351	0.14
599.69	0.13
600.029	0.13
600.368	0.13
600.707	0.14
601.046	0.14
601.384	0.14
601.723	0.13
602.061	0.13
602.4	0.14
602.738	0.14
603.077	0.13
603.415	0.12
603.754	0.14
604.092	0.13
604.43	0.13
604.768	0.13
605.107	0.13
605.445	0.13
605.783	0.13
606.121	0.12
606.459	0.13
606.796	0.13
607.134	0.12
607.472	0.12
607.81	0.13
608.148	0.12
608.485	0.13
608.823	0.12
609.16	0.12
609.498	0.13
609.835	0.12
610.173	0.12
610.51	0.13
610.847	0.13
611.185	0.13
611.522	0.13
611.859	0.13
612.196	0.13
612.533	0.13
612.87	0.14
613.207	0.14
613.544	0.13
613.881	0.14
614.217	0.14
614.554	0.13
614.891	0.14
615.228	0.14
615.564	0.13
615.901	0.13
616.237	0.14
616.574	0.14
616.91	0.14
617.246	0.14
617.583	0.14
617.919	0.14
618.255	0.14
618.591	0.14
618.927	0.14
619.263	0.14
619.599	0.14
619.935	0.14
620.271	0.14
620.607	0.14
620.943	0.14
621.279	0.14
621.614	0.14
621.95	0.14
622.286	0.14
622.621	0.13
622.957	0.13
623.292	0.13
623.627	0.13
623.963	0.13
624.298	0.13
624.633	0.12
624.968	0.12
625.304	0.12
625.639	0.12
625.974	0.12
626.309	0.12
626.644	0.13
626.979	0.13
627.313	0.12
627.648	0.12
627.983	0.12
628.318	0.12
628.652	0.12
628.987	0.13
629.321	0.12
629.656	0.11
629.99	0.12
630.325	0.12
630.659	0.12
630.993	0.11
631.327	0.12
631.662	0.11
631.996	0.12
632.33	0.12
632.664	0.12
632.998	0.11
633.332	0.12
633.666	0.11
633.999	0.12
634.333	0.11
634.667	0.12
635.001	0.11
635.334	0.11
635.668	0.11
636.001	0.11
636.335	0.12
636.668	0.12
637.001	0.11
637.335	0.11
637.668	0.11
638.001	0.11
638.334	0.12
638.668	0.11
639.001	0.11
639.334	0.11
639.667	0.11
639.999	0.11
640.332	0.11
640.665	0.11
640.998	0.11
641.331	0.11
641.663	0.1
641.996	0.11
642.328	0.12
642.661	0.11
642.993	0.11
643.326	0.11
643.658	0.11
643.99	0.11
644.323	0.11
644.655	0.11
644.987	0.11
645.319	0.11
645.651	0.11
645.983	0.1
646.315	0.1
646.647	0.11
646.979	0.11
647.31	0.11
647.642	0.11
647.974	0.11
648.305	0.12
648.637	0.11
648.968	0.11
649.3	0.11
649.631	0.12
649.963	0.11
650.294	0.11
650.625	0.11
650.957	0.11
651.288	0.12
651.619	0.11
651.95	0.11
652.281	0.11
652.612	0.11
652.943	0.12
653.274	0.12
653.604	0.11
653.935	0.11
654.266	0.11
654.596	0.11
654.927	0.11
655.258	0.12
655.588	0.12
655.918	0.11
656.249	0.1
656.579	0.11
656.909	0.11
657.24	0.11
657.57	0.11
657.9	0.11
658.23	0.11
658.56	0.12
658.89	0.11
659.22	0.11
659.55	0.12
659.88	0.11
660.209	0.11
660.539	0.12
660.869	0.12
661.198	0.12
661.528	0.12
661.857	0.11
662.187	0.12
662.516	0.11
662.846	0.11
663.175	0.11
663.504	0.11
663.833	0.11
664.163	0.12
664.492	0.11
664.821	0.12
665.15	0.11
665.479	0.11
665.807	0.11
666.136	0.11
666.465	0.11
666.794	0.11
667.122	0.11
667.451	0.11
667.78	0.11
668.108	0.12
668.437	0.11
668.765	0.11
669.093	0.11
669.422	0.11
669.75	0.11
670.078	0.11
670.406	0.11
670.734	0.11
671.062	0.11
671.39	0.1
671.718	0.11
672.046	0.11
672.374	0.11
672.702	0.11
673.029	0.1
673.357	0.1
673.685	0.11
674.012	0.11
674.34	0.11
674.667	0.11
674.995	0.11
675.322	0.11
675.649	0.1
675.977	0.1
676.304	0.11
676.631	0.11
676.958	0.1
677.285	0.1
677.612	0.1
677.939	0.11
678.266	0.1
678.593	0.11
678.92	0.1
679.246	0.1
679.573	0.1
679.9	0.1
680.226	0.1
680.553	0.09
680.879	0.11
681.206	0.1
681.532	0.1
681.858	0.1
682.184	0.1
682.511	0.1
682.837	0.1
683.163	0.1
683.489	0.1
683.815	0.09
684.141	0.1
684.467	0.09
684.793	0.09
685.118	0.09
685.444	0.1
685.77	0.1
686.095	0.1
686.421	0.1
686.746	0.1
687.072	0.1
687.397	0.09
687.723	0.1
688.048	0.11
688.373	0.1
688.698	0.1
689.023	0.1
689.349	0.1
689.674	0.1
689.999	0.1
690.323	0.09
690.648	0.09
690.973	0.09
691.298	0.1
691.623	0.1
691.947	0.1
692.272	0.1
692.596	0.1
692.921	0.1
693.245	0.1
693.57	0.1
693.894	0.1
694.218	0.1
694.543	0.1
694.867	0.09
695.191	0.09
695.515	0.09
695.839	0.1
696.163	0.09
696.487	0.09
696.811	0.09
697.135	0.09
697.458	0.1
697.782	0.09
698.106	0.09
698.429	0.09
698.753	0.09
699.076	0.09
699.4	0.09
699.723	0.09
700.046	0.08
700.37	0.09
700.693	0.09
701.016	0.09
701.339	0.1
701.662	0.09
701.985	0.1
702.308	0.09
702.631	0.09
702.954	0.09
703.277	0.1
703.599	0.1
703.922	0.09
704.245	0.08
704.567	0.09
704.89	0.09
705.212	0.09
705.535	0.08
705.857	0.09
706.179	0.08
706.502	0.08
706.824	0.08
707.146	0.08
707.468	0.08
707.79	0.08
708.112	0.08
708.434	0.08
708.756	0.08
709.078	0.08
709.399	0.08
709.721	0.08
710.043	0.08
710.364	0.08
710.686	0.08
711.007	0.08
711.329	0.09
711.65	0.08
711.972	0.08
712.293	0.08
712.614	0.09
712.935	0.09
713.256	0.08
713.577	0.09
713.898	0.09
714.219	0.08
714.54	0.08
714.861	0.08
715.182	0.08
715.503	0.08
715.823	0.08
716.144	0.08
716.464	0.07
716.785	0.07
717.105	0.07
717.426	0.07
717.746	0.07
718.066	0.07
718.387	0.07
718.707	0.06
719.027	0.07
719.347	0.06
719.667	0.07
719.987	0.06
720.307	0.07
720.627	0.07
720.947	0.08
721.266	0.07
721.586	0.06
721.906	0.08
722.225	0.07
722.545	0.07
722.864	0.07
723.184	0.07
723.503	0.07
723.823	0.08
724.142	0.07
724.461	0.07
724.78	0.07
725.099	0.07
725.418	0.07
725.737	0.06
726.056	0.07
726.375	0.06
726.694	0.07
727.013	0.06
727.331	0.06
727.65	0.06
727.969	0.07
728.287	0.07
728.606	0.07
728.924	0.06
729.242	0.07
729.561	0.06
729.879	0.07
730.197	0.07
730.515	0.07
730.834	0.07
731.152	0.06
731.47	0.07
731.788	0.06
732.105	0.06
732.423	0.07
732.741	0.07
733.059	0.07
733.376	0.07
733.694	0.06
734.012	0.06
734.329	0.07
734.647	0.07
734.964	0.07
735.281	0.06
735.599	0.08
735.916	0.07
736.233	0.06
736.55	0.07
736.867	0.07
737.184	0.07
737.501	0.06
737.818	0.07
738.135	0.07
738.452	0.07
738.768	0.07
739.085	0.06
739.402	0.06
739.718	0.06
740.035	0.07
740.351	0.07
740.668	0.08
740.984	0.06
741.3	0.06
741.617	0.07
741.933	0.06
742.249	0.07
742.565	0.07
742.881	0.06
743.197	0.06
743.513	0.06
743.829	0.06
744.144	0.07
744.46	0.06
744.776	0.06
745.091	0.06
745.407	0.06
745.722	0.05
746.038	0.06
746.353	0.05
746.669	0.06
746.984	0.05
747.299	0.06
747.614	0.06
747.93	0.07
748.245	0.05
748.56	0.06
748.875	0.05
749.189	0.07
749.504	0.06
749.819	0.06
750.134	0.06
750.448	0.06
750.763	0.06
751.078	0.05
751.392	0.06
751.707	0.07
752.021	0.07
752.335	0.07
752.65	0.07
752.964	0.06
753.278	0.07
753.592	0.06
753.906	0.06
754.22	0.06
754.534	0.06
754.848	0.06
755.162	0.07
755.476	0.07
755.789	0.07
756.103	0.06
756.417	0.07
756.73	0.07
757.044	0.07
757.357	0.07
757.671	0.07
757.984	0.07
758.297	0.07
758.61	0.07
758.924	0.07
759.237	0.06
759.55	0.07
759.863	0.07
760.176	0.06
760.488	0.06
760.801	0.05
761.114	0.06
761.427	0.06
761.739	0.06
762.052	0.06
762.365	0.05
762.677	0.06
762.99	0.05
763.302	0.06
763.614	0.06
763.926	0.06
764.239	0.06
764.551	0.05
764.863	0.06
765.175	0.06
765.487	0.06
765.799	0.04
766.111	0.05
766.423	0.06
766.734	0.05
767.046	0.05
767.358	0.05
767.669	0.05
767.981	0.05
768.292	0.05
768.604	0.06
768.915	0.05
769.226	0.05
769.537	0.05
769.849	0.06
770.16	0.05
770.471	0.05
770.782	0.05
771.093	0.05
771.404	0.05
771.715	0.04
772.025	0.05
772.336	0.05
772.647	0.05
772.957	0.05
773.268	0.05
773.578	0.05
773.889	0.06
774.199	0.05
774.51	0.05
774.82	0.05
775.13	0.05
775.44	0.05
775.75	0.06
776.06	0.05
776.37	0.05
776.68	0.06
776.99	0.06
777.3	0.04
777.61	0.06
777.92	0.05
778.229	0.05
778.539	0.05
778.848	0.05
779.158	0.05
779.467	0.06
779.777	0.05
780.086	0.06
780.395	0.04
780.704	0.06
781.013	0.04
781.323	0.04
781.632	0.05
781.941	0.05
782.249	0.05
782.558	0.05
782.867	0.05
783.176	0.05
783.485	0.05
783.793	0.05
784.102	0.04
784.41	0.05
784.719	0.04
785.027	0.04
785.335	0.04
785.644	0.04
785.952	0.05
786.26	0.05
786.568	0.03
786.876	0.04
787.184	0.05
787.492	0.05
787.8	0.05
788.108	0.05
788.416	0.04
788.723	0.04
789.031	0.04
789.338	0.04
789.646	0.04
789.953	0.05
790.261	0.05
790.568	0.05
790.876	0.05
791.183	0.05
791.49	0.04
791.797	0.06
792.104	0.04
792.411	0.05
792.718	0.05
793.025	0.05
793.332	0.05
793.639	0.05
793.945	0.06
794.252	0.05
794.559	0.05
794.865	0.05
795.172	0.05
795.478	0.04
795.784	0.06
796.091	0.06
796.397	0.07
796.703	0.06
797.009	0.07
797.315	0.06
797.622	0.06
797.927	0.06
798.233	0.05
798.539	0.06
798.845	0.06
799.151	0.06
799.456	0.06
799.762	0.05
800.068	0.06
800.373	0.06
800.679	0.06
800.984	0.06
801.289	0.06
801.595	0.06
801.9	0.05
802.205	0.05
802.51	0.05
802.815	0.05
803.12	0.05
803.425	0.06
803.73	0.05
804.035	0.06
804.339	0.05
804.644	0.04
804.949	0.05
805.253	0.05
805.558	0.05
805.862	0.05
806.167	0.05
806.471	0.04
806.775	0.05
807.08	0.04
807.384	0.05
807.688	0.05
807.992	0.05
808.296	0.05
808.6	0.05
808.904	0.06
809.207	0.05
809.511	0.06
809.815	0.06
810.119	0.06
810.422	0.06
810.726	0.07
811.029	0.07
811.332	0.07
811.636	0.07
811.939	0.06
812.242	0.06
812.546	0.07
812.849	0.06
813.152	0.07
813.455	0.07
813.758	0.07
814.06	0.07
814.363	0.07
814.666	0.07
814.969	0.07
815.271	0.06
815.574	0.06
815.877	0.06
816.179	0.06
816.481	0.06
816.784	0.06
817.086	0.05
817.388	0.05
817.69	0.04
817.993	0.04
818.295	0.05
818.597	0.05
818.899	0.04
819.2	0.03
819.502	0.04
819.804	0.05
820.106	0.04
820.407	0.04
820.709	0.04
821.01	0.05
821.312	0.05
821.613	0.04
821.915	0.04
822.216	0.04
822.517	0.03
822.818	0.03
823.119	0.04
823.42	0.04
823.721	0.03
824.022	0.03
824.323	0.04
824.624	0.03
824.925	0.04
825.226	0.04
825.526	0.04
825.827	0.04
826.127	0.05
826.428	0.04
826.728	0.04
827.028	0.04
827.329	0.03
827.629	0.03
827.929	0.03
828.229	0.04
828.529	0.05
828.829	0.03
829.129	0.04
829.429	0.04
829.729	0.03
830.029	0.03
830.328	0.04
830.628	0.03
830.927	0.02
831.227	0.03
831.526	0.03
831.826	0.03
832.125	0.02
832.424	0.02
832.724	0.03
833.023	0.04
833.322	0.03
833.621	0.03
833.92	0.02
834.219	0.03
834.518	0.02
834.816	0.01
835.115	0.02
835.414	0.02
835.712	0.02
836.011	0.01
836.309	0.01
836.608	0.01
836.906	0.02
837.205	0.01
837.503	0.01
837.801	0.01
838.099	0
838.397	-0.01
838.695	-0
838.993	0
839.291	-0
839.589	0
839.887	0
840.184	-0.01
840.482	-0.01
840.78	-0
841.077	-0.01
841.375	-0
841.672	-0.01
841.969	-0.01
842.267	-0.01
842.564	-0.01
842.861	-0.01
843.158	-0.01
843.455	-0.02
843.752	-0.02
844.049	-0.02
844.346	-0.03
844.643	-0.03
844.94	-0.03
845.236	-0.02
845.533	-0.03
845.83	-0.03
846.126	-0.04
846.423	-0.03
846.719	-0.04
847.015	-0.03
847.312	-0.04
847.608	-0.04
847.904	-0.04
848.2	-0.04
848.496	-0.05
848.792	-0.03
849.088	-0.02
849.384	-0.05
849.68	-0.05
849.975	-0.04
850.271	-0.05
850.567	-0.05
850.862	-0.05
851.158	-0.05
851.453	-0.05
851.748	-0.06
852.044	-0.06
852.339	-0.06
852.634	-0.07
852.929	-0.06
853.224	-0.06
853.519	-0.07
853.814	-0.06
854.109	-0.07
854.404	-0.07
854.699	-0.07
854.994	-0.06
855.288	-0.07
855.583	-0.06
855.877	-0.08
856.172	-0.07
856.466	-0.07
856.76	-0.08
857.055	-0.08
857.349	-0.09
857.643	-0.09
857.937	-0.09
858.231	-0.1
858.525	-0.09
858.819	-0.09
859.113	-0.11
859.407	-0.11
859.701	-0.11
859.994	-0.11
860.288	-0.09
860.581	-0.11
860.875	-0.11
861.168	-0.11
861.462	-0.11
861.755	-0.09
862.048	-0.11
862.341	-0.11
862.634	-0.11
862.928	-0.1
863.221	-0.1
863.513	-0.11
863.806	-0.11
864.099	-0.12
864.392	-0.12
864.685	-0.11
864.977	-0.1
865.27	-0.12
865.562	-0.12
865.855	-0.11
866.147	-0.12
866.44	-0.11
866.732	-0.11
867.024	-0.12
867.316	-0.12
867.608	-0.13
867.9	-0.12
868.192	-0.13
868.484	-0.13
868.776	-0.14
869.068	-0.12
869.359	-0.12
869.651	-0.13
869.943	-0.14
870.234	-0.15
870.526	-0.14
870.817	-0.15
871.108	-0.14
871.4	-0.14
871.691	-0.15
871.982	-0.15
872.273	-0.16
872.564	-0.16
872.855	-0.16
873.146	-0.16
873.437	-0.16
873.728	-0.18
874.019	-0.17
874.309	-0.16
874.6	-0.16
874.89	-0.16
875.181	-0.17
875.471	-0.17
875.762	-0.16
876.052	-0.16
876.342	-0.15
876.632	-0.16
876.922	-0.18
877.213	-0.17
877.503	-0.18
877.792	-0.16
878.082	-0.18
878.372	-0.16
878.662	-0.17
878.952	-0.18
879.241	-0.18
879.531	-0.16
879.82	-0.16
880.11	-0.17
880.399	-0.17
880.688	-0.15
880.978	-0.15
881.267	-0.15
