Data from 12-12-AQDScycling_Absorbance__43__00043.txt Node

Date: Tue Dec 12 11:07:29 EST 2023
User: kyuminlee
Spectrometer: FLMS00943
Trigger mode: 0
Integration Time (sec): 1.000000E-1
Scans to average: 1
Electric dark correction enabled: true
Nonlinearity correction enabled: false
Boxcar width: 0
XAxis mode: Wavelengths
Number of Pixels in Spectrum: 2048
>>>>>Begin Spectral Data<<<<<
179.651	1.06
180.037	1.06
180.424	1.06
180.81	-0.45
181.197	0.49
181.583	-0.31
181.97	0.11
182.356	-0
182.743	-1.38
183.129	0
183.515	0.08
183.901	-2.36
184.288	0.83
184.674	0.03
185.06	-0.95
185.446	-0
185.832	-0
186.218	0.55
186.604	-0
186.99	-0
187.376	-0
187.762	-0
188.148	-0
188.534	0.4
188.92	0
189.305	0.02
189.691	0.22
190.077	0.22
190.463	0.06
190.848	0.05
191.234	0.28
191.619	0.16
192.005	0.24
192.391	0.17
192.776	0.16
193.161	0.31
193.547	0.17
193.932	0.23
194.318	0.13
194.703	0.23
195.088	0.25
195.473	0.22
195.859	0.09
196.244	0.17
196.629	0.06
197.014	0.2
197.399	0.22
197.784	0.11
198.169	0.12
198.554	0.27
198.939	0.12
199.324	0.13
199.709	0.09
200.094	0.12
200.478	0.16
200.863	0.32
201.248	0.1
201.633	0.18
202.017	0.15
202.402	0.13
202.787	0.18
203.171	0.27
203.556	0.3
203.94	0.11
204.325	0.19
204.709	0.29
205.093	0.15
205.478	0.06
205.862	0.07
206.246	0.3
206.631	0.24
207.015	0.18
207.399	0.21
207.783	0.18
208.167	0.19
208.551	0.15
208.935	0.15
209.319	0.2
209.703	0.18
210.087	0.23
210.471	0.09
210.855	0.31
211.239	0.36
211.623	0.24
212.007	0.25
212.39	0.27
212.774	0.07
213.158	0.15
213.541	0.23
213.925	0.28
214.309	0.35
214.692	0.24
215.076	0.29
215.459	0.35
215.842	0.18
216.226	0.19
216.609	0.33
216.993	0.18
217.376	0.75
217.759	0.1
218.142	0.34
218.525	0.68
218.909	0.3
219.292	0.4
219.675	0.29
220.058	0.54
220.441	0.51
220.824	0.67
221.207	0.65
221.59	0.45
221.973	0.48
222.355	0.62
222.738	0.75
223.121	0.64
223.504	0.53
223.886	0.68
224.269	0.68
224.652	0.62
225.034	0.81
225.417	0.72
225.799	0.68
226.182	0.73
226.564	0.84
226.947	0.84
227.329	0.89
227.711	1.01
228.094	1.02
228.476	1.07
228.858	0.78
229.24	0.81
229.623	0.96
230.005	0.92
230.387	0.83
230.769	0.8
231.151	0.95
231.533	0.9
231.915	0.94
232.297	0.88
232.679	0.99
233.061	1.08
233.442	1.02
233.824	1.19
234.206	1.22
234.588	1.1
234.969	0.95
235.351	0.97
235.733	1.08
236.114	1.09
236.496	1
236.877	1.17
237.259	1.17
237.64	1.18
238.022	1.05
238.403	1.04
238.784	1.04
239.165	0.95
239.547	1.03
239.928	1.13
240.309	0.99
240.69	1.11
241.071	1.2
241.452	1.16
241.834	1.13
242.215	1.05
242.595	1.07
242.976	1.04
243.357	1.14
243.738	1.05
244.119	1.26
244.5	1.1
244.881	1.39
245.261	1.17
245.642	1.13
246.023	1.25
246.403	1.27
246.784	1.25
247.164	1.37
247.545	1.24
247.925	1.26
248.306	1.22
248.686	1.73
249.067	1.27
249.447	1.39
249.827	1.62
250.207	1.56
250.588	1.17
250.968	1.56
251.348	1.6
251.728	1.36
252.108	1.38
252.488	1.52
252.868	1.39
253.248	1.34
253.628	1.41
254.008	1.6
254.388	1.43
254.768	1.42
255.147	1.28
255.527	1.62
255.907	1.39
256.287	1.42
256.666	1.44
257.046	1.55
257.425	1.5
257.805	1.38
258.184	1.44
258.564	1.37
258.943	1.34
259.323	1.49
259.702	1.49
260.081	1.5
260.461	1.55
260.84	1.56
261.219	1.68
261.598	1.47
261.977	1.52
262.356	1.59
262.736	1.42
263.115	1.58
263.494	1.55
263.873	1.44
264.251	1.53
264.63	1.51
265.009	1.51
265.388	1.45
265.767	1.43
266.145	1.43
266.524	1.43
266.903	1.36
267.281	1.46
267.66	1.38
268.039	1.64
268.417	1.47
268.796	1.54
269.174	1.41
269.552	1.39
269.931	1.7
270.309	1.42
270.687	1.62
271.066	1.51
271.444	1.37
271.822	1.36
272.2	1.47
272.578	1.46
272.956	1.44
273.334	1.36
273.712	1.53
274.09	1.56
274.468	1.38
274.846	1.28
275.224	1.35
275.602	1.65
275.98	1.54
276.357	1.57
276.735	1.4
277.113	1.5
277.49	1.38
277.868	1.3
278.246	1.41
278.623	1.29
279.001	1.39
279.378	1.29
279.756	1.5
280.133	1.56
280.51	1.47
280.888	1.42
281.265	1.41
281.642	1.39
282.019	1.54
282.396	1.69
282.773	1.66
283.151	1.58
283.528	1.57
283.905	1.46
284.282	1.62
284.659	1.58
285.035	1.35
285.412	1.42
285.789	1.62
286.166	1.35
286.543	1.45
286.919	1.55
287.296	1.38
287.673	1.64
288.049	1.58
288.426	1.73
288.802	1.49
289.179	1.59
289.555	1.89
289.932	1.53
290.308	1.41
290.684	1.34
291.061	1.38
291.437	1.68
291.813	1.46
292.189	1.49
292.565	1.39
292.942	1.42
293.318	1.54
293.694	1.47
294.07	1.34
294.446	1.38
294.822	1.97
295.197	1.5
295.573	1.57
295.949	1.46
296.325	1.52
296.701	1.5
297.076	1.74
297.452	1.65
297.828	1.47
298.203	1.72
298.579	1.45
298.954	1.5
299.33	1.45
299.705	1.55
300.081	1.62
300.456	1.55
300.831	1.45
301.206	1.43
301.582	1.54
301.957	1.49
302.332	1.64
302.707	1.47
303.082	1.47
303.457	1.41
303.832	1.43
304.207	1.42
304.582	1.49
304.957	1.59
305.332	1.48
305.707	1.48
306.082	1.61
306.456	1.65
306.831	1.6
307.206	1.53
307.58	1.5
307.955	1.46
308.33	1.4
308.704	1.44
309.079	1.46
309.453	1.58
309.828	1.6
310.202	1.5
310.576	1.43
310.951	1.54
311.325	1.52
311.699	1.48
312.073	1.44
312.447	1.48
312.821	1.47
313.196	1.57
313.57	1.41
313.944	1.5
314.317	1.41
314.691	1.41
315.065	1.43
315.439	1.43
315.813	1.57
316.187	1.47
316.56	1.65
316.934	1.49
317.308	1.41
317.681	1.49
318.055	1.63
318.428	1.47
318.802	1.56
319.175	1.44
319.549	1.64
319.922	1.45
320.295	1.53
320.669	1.74
321.042	1.53
321.415	1.82
321.788	1.56
322.162	1.48
322.535	1.57
322.908	1.54
323.281	1.73
323.654	1.73
324.027	1.49
324.4	1.73
324.773	1.4
325.145	1.63
325.518	1.51
325.891	1.39
326.264	1.63
326.636	1.49
327.009	1.63
327.382	1.52
327.754	1.58
328.127	1.44
328.499	1.66
328.872	1.57
329.244	1.48
329.616	1.47
329.989	1.5
330.361	1.58
330.733	1.51
331.106	1.51
331.478	1.7
331.85	1.41
332.222	1.51
332.594	1.49
332.966	1.54
333.338	1.7
333.71	1.54
334.082	1.9
334.454	1.45
334.826	1.6
335.197	1.58
335.569	1.53
335.941	1.48
336.312	1.42
336.684	1.47
337.056	1.54
337.427	1.51
337.799	1.56
338.17	1.63
338.542	1.45
338.913	1.65
339.284	1.55
339.656	1.53
340.027	1.5
340.398	1.51
340.769	1.57
341.141	1.79
341.512	1.48
341.883	1.55
342.254	1.47
342.625	1.57
342.996	1.51
343.367	1.45
343.738	1.54
344.108	1.36
344.479	1.68
344.85	1.37
345.221	1.46
345.591	1.43
345.962	1.47
346.333	1.49
346.703	1.39
347.074	1.42
347.444	1.32
347.815	1.6
348.185	1.43
348.556	1.4
348.926	1.31
349.296	1.5
349.666	1.37
350.037	1.26
350.407	1.25
350.777	1.34
351.147	1.29
351.517	1.35
351.887	1.37
352.257	1.37
352.627	1.29
352.997	1.24
353.367	1.37
353.737	1.42
354.106	1.39
354.476	1.31
354.846	1.43
355.216	1.44
355.585	1.49
355.955	1.31
356.324	1.34
356.694	1.32
357.063	1.36
357.433	1.27
357.802	1.28
358.171	1.34
358.541	1.33
358.91	1.39
359.279	1.31
359.648	1.27
360.017	1.36
360.387	1.27
360.756	1.25
361.125	1.35
361.494	1.24
361.863	1.18
362.231	1.19
362.6	1.2
362.969	1.23
363.338	1.21
363.707	1.29
364.075	1.23
364.444	1.15
364.813	1.18
365.181	1.18
365.55	1.19
365.918	1.31
366.287	1.27
366.655	1.25
367.024	1.16
367.392	1.25
367.76	1.11
368.128	1.26
368.497	1.19
368.865	1.18
369.233	1.13
369.601	1.22
369.969	1.17
370.337	1.21
370.705	1.19
371.073	1.16
371.441	1.12
371.809	1.17
372.177	1.15
372.544	1.16
372.912	1.25
373.28	1.18
373.647	1.22
374.015	1.2
374.383	1.21
374.75	1.29
375.118	1.2
375.485	1.25
375.853	1.22
376.22	1.14
376.587	1.21
376.955	1.23
377.322	1.2
377.689	1.23
378.056	1.25
378.423	1.18
378.79	1.23
379.157	1.24
379.524	1.2
379.891	1.24
380.258	1.21
380.625	1.17
380.992	1.18
381.359	1.31
381.726	1.34
382.092	1.22
382.459	1.26
382.826	1.24
383.192	1.32
383.559	1.3
383.925	1.38
384.292	1.31
384.658	1.3
385.025	1.36
385.391	1.41
385.757	1.47
386.123	1.42
386.49	1.31
386.856	1.39
387.222	1.45
387.588	1.31
387.954	1.38
388.32	1.37
388.686	1.43
389.052	1.38
389.418	1.33
389.784	1.35
390.15	1.42
390.515	1.27
390.881	1.34
391.247	1.32
391.613	1.36
391.978	1.32
392.344	1.39
392.709	1.36
393.075	1.38
393.44	1.41
393.806	1.36
394.171	1.32
394.536	1.35
394.902	1.28
395.267	1.37
395.632	1.35
395.997	1.32
396.362	1.27
396.727	1.43
397.092	1.32
397.457	1.37
397.822	1.31
398.187	1.26
398.552	1.3
398.917	1.38
399.282	1.22
399.646	1.36
400.011	1.4
400.376	1.27
400.74	1.22
401.105	1.25
401.47	1.27
401.834	1.21
402.199	1.27
402.563	1.17
402.927	1.21
403.292	1.26
403.656	1.23
404.02	1.2
404.384	1.25
404.749	1.17
405.113	1.17
405.477	1.21
405.841	1.16
406.205	1.14
406.569	1.15
406.933	1.11
407.296	1.14
407.66	1.11
408.024	1.1
408.388	1.1
408.752	1.14
409.115	1.14
409.479	1.13
409.842	1.1
410.206	1.07
410.569	1.05
410.933	1.09
411.296	1.04
411.66	1.1
412.023	1.05
412.386	1.05
412.749	1.02
413.113	1.01
413.476	1.02
413.839	1.02
414.202	1.04
414.565	1.03
414.928	0.95
415.291	0.99
415.654	1.02
416.017	1
416.38	0.94
416.742	0.94
417.105	0.97
417.468	1
417.83	1
418.193	0.99
418.556	0.94
418.918	0.89
419.281	0.94
419.643	0.96
420.005	0.95
420.368	0.97
420.73	0.94
421.092	0.96
421.455	0.97
421.817	0.9
422.179	0.92
422.541	0.96
422.903	0.96
423.265	0.97
423.627	0.95
423.989	0.91
424.351	0.92
424.713	0.9
425.075	0.91
425.436	0.89
425.798	0.89
426.16	0.93
426.521	0.94
426.883	0.89
427.245	0.88
427.606	0.9
427.967	0.86
428.329	0.9
428.69	0.91
429.052	0.88
429.413	0.91
429.774	0.88
430.135	0.86
430.497	0.89
430.858	0.88
431.219	0.88
431.58	0.88
431.941	0.86
432.302	0.87
432.663	0.85
433.024	0.87
433.384	0.88
433.745	0.81
434.106	0.83
434.467	0.84
434.827	0.84
435.188	0.82
435.548	0.86
435.909	0.81
436.269	0.85
436.63	0.81
436.99	0.82
437.351	0.83
437.711	0.81
438.071	0.79
438.431	0.82
438.792	0.81
439.152	0.81
439.512	0.78
439.872	0.81
440.232	0.8
440.592	0.8
440.952	0.76
441.312	0.76
441.671	0.77
442.031	0.74
442.391	0.78
442.751	0.77
443.11	0.75
443.47	0.73
443.83	0.73
444.189	0.74
444.549	0.74
444.908	0.74
445.267	0.73
445.627	0.73
445.986	0.7
446.345	0.7
446.705	0.69
447.064	0.7
447.423	0.7
447.782	0.7
448.141	0.69
448.5	0.67
448.859	0.69
449.218	0.68
449.577	0.69
449.936	0.67
450.295	0.67
450.653	0.67
451.012	0.67
451.371	0.67
451.729	0.66
452.088	0.66
452.447	0.66
452.805	0.65
453.163	0.66
453.522	0.64
453.88	0.63
454.239	0.63
454.597	0.61
454.955	0.61
455.313	0.61
455.671	0.61
456.029	0.61
456.388	0.6
456.746	0.6
457.104	0.59
457.461	0.57
457.819	0.57
458.177	0.55
458.535	0.55
458.893	0.55
459.25	0.54
459.608	0.54
459.966	0.53
460.323	0.53
460.681	0.51
461.038	0.52
461.396	0.51
461.753	0.51
462.111	0.51
462.468	0.49
462.825	0.49
463.182	0.49
463.54	0.47
463.897	0.49
464.254	0.48
464.611	0.47
464.968	0.46
465.325	0.46
465.682	0.45
466.039	0.45
466.395	0.44
466.752	0.44
467.109	0.43
467.466	0.42
467.822	0.43
468.179	0.41
468.535	0.42
468.892	0.41
469.248	0.41
469.605	0.41
469.961	0.4
470.318	0.41
470.674	0.39
471.03	0.39
471.386	0.38
471.743	0.37
472.099	0.36
472.455	0.35
472.811	0.36
473.167	0.36
473.523	0.35
473.879	0.35
474.235	0.35
474.59	0.35
474.946	0.34
475.302	0.34
475.657	0.33
476.013	0.33
476.369	0.32
476.724	0.31
477.08	0.31
477.435	0.31
477.791	0.3
478.146	0.31
478.501	0.3
478.857	0.29
479.212	0.3
479.567	0.29
479.922	0.28
480.277	0.27
480.632	0.27
480.987	0.28
481.342	0.27
481.697	0.26
482.052	0.26
482.407	0.26
482.762	0.26
483.116	0.25
483.471	0.24
483.826	0.24
484.18	0.24
484.535	0.23
484.89	0.23
485.244	0.24
485.598	0.24
485.953	0.23
486.307	0.23
486.661	0.24
487.016	0.22
487.37	0.23
487.724	0.22
488.078	0.22
488.432	0.22
488.786	0.22
489.14	0.21
489.494	0.21
489.848	0.21
490.202	0.2
490.556	0.2
490.91	0.21
491.263	0.2
491.617	0.2
491.971	0.2
492.324	0.19
492.678	0.2
493.031	0.19
493.385	0.19
493.738	0.19
494.091	0.19
494.445	0.19
494.798	0.18
495.151	0.18
495.504	0.18
495.857	0.19
496.21	0.19
496.564	0.18
496.916	0.18
497.269	0.18
497.622	0.18
497.975	0.17
498.328	0.18
498.681	0.18
499.033	0.17
499.386	0.18
499.739	0.17
500.091	0.17
500.444	0.18
500.796	0.17
501.149	0.16
501.501	0.17
501.854	0.17
502.206	0.17
502.558	0.17
502.91	0.17
503.263	0.16
503.615	0.16
503.967	0.16
504.319	0.17
504.671	0.16
505.023	0.16
505.375	0.16
505.726	0.16
506.078	0.16
506.43	0.15
506.782	0.15
507.133	0.16
507.485	0.16
507.837	0.16
508.188	0.16
508.54	0.16
508.891	0.16
509.243	0.16
509.594	0.16
509.945	0.16
510.296	0.15
510.648	0.16
510.999	0.14
511.35	0.15
511.701	0.15
512.052	0.15
512.403	0.15
512.754	0.15
513.105	0.15
513.456	0.14
513.807	0.14
514.157	0.14
514.508	0.14
514.859	0.13
515.209	0.14
515.56	0.14
515.91	0.14
516.261	0.14
516.611	0.14
516.962	0.15
517.312	0.14
517.662	0.15
518.013	0.14
518.363	0.15
518.713	0.15
519.063	0.14
519.413	0.15
519.763	0.14
520.113	0.14
520.463	0.15
520.813	0.15
521.163	0.15
521.512	0.14
521.862	0.14
522.212	0.15
522.562	0.15
522.911	0.14
523.261	0.15
523.61	0.15
523.96	0.15
524.309	0.15
524.658	0.15
525.008	0.14
525.357	0.15
525.706	0.15
526.056	0.15
526.405	0.15
526.754	0.14
527.103	0.14
527.452	0.15
527.801	0.15
528.15	0.15
528.499	0.14
528.847	0.15
529.196	0.15
529.545	0.15
529.893	0.15
530.242	0.15
530.591	0.15
530.939	0.15
531.288	0.15
531.636	0.15
531.985	0.15
532.333	0.14
532.681	0.15
533.029	0.15
533.378	0.15
533.726	0.14
534.074	0.15
534.422	0.14
534.77	0.15
535.118	0.14
535.466	0.15
535.814	0.14
536.162	0.15
536.509	0.16
536.857	0.15
537.205	0.15
537.552	0.15
537.9	0.15
538.248	0.15
538.595	0.15
538.943	0.15
539.29	0.15
539.637	0.14
539.985	0.14
540.332	0.14
540.679	0.15
541.026	0.14
541.373	0.15
541.721	0.14
542.068	0.15
542.415	0.15
542.762	0.14
543.108	0.14
543.455	0.14
543.802	0.14
544.149	0.14
544.496	0.15
544.842	0.14
545.189	0.14
545.535	0.15
545.882	0.15
546.228	0.15
546.575	0.14
546.921	0.14
547.267	0.15
547.614	0.15
547.96	0.15
548.306	0.15
548.652	0.15
548.998	0.15
549.344	0.14
549.69	0.15
550.036	0.14
550.382	0.15
550.728	0.15
551.074	0.15
551.42	0.15
551.765	0.15
552.111	0.16
552.457	0.15
552.802	0.15
553.148	0.15
553.493	0.14
553.839	0.15
554.184	0.15
554.529	0.15
554.875	0.16
555.22	0.15
555.565	0.16
555.91	0.16
556.255	0.16
556.6	0.16
556.945	0.15
557.29	0.14
557.635	0.16
557.98	0.15
558.325	0.15
558.67	0.14
559.014	0.15
559.359	0.15
559.704	0.14
560.048	0.14
560.393	0.15
560.737	0.13
561.082	0.14
561.426	0.13
561.77	0.14
562.115	0.14
562.459	0.15
562.803	0.14
563.147	0.15
563.491	0.15
563.835	0.15
564.179	0.14
564.523	0.14
564.867	0.14
565.211	0.14
565.555	0.15
565.899	0.15
566.242	0.15
566.586	0.15
566.93	0.14
567.273	0.15
567.617	0.15
567.96	0.15
568.304	0.15
568.647	0.15
568.99	0.15
569.334	0.16
569.677	0.16
570.02	0.16
570.363	0.15
570.706	0.16
571.049	0.16
571.392	0.16
571.735	0.15
572.078	0.16
572.421	0.16
572.764	0.15
573.106	0.16
573.449	0.15
573.792	0.15
574.134	0.15
574.477	0.16
574.819	0.15
575.162	0.15
575.504	0.15
575.847	0.15
576.189	0.15
576.531	0.15
576.873	0.15
577.215	0.15
577.558	0.15
577.9	0.15
578.242	0.14
578.584	0.15
578.926	0.15
579.267	0.15
579.609	0.15
579.951	0.15
580.293	0.15
580.634	0.16
580.976	0.15
581.318	0.15
581.659	0.15
582.001	0.15
582.342	0.14
582.683	0.15
583.025	0.15
583.366	0.14
583.707	0.15
584.049	0.15
584.39	0.15
584.731	0.14
585.072	0.14
585.413	0.16
585.754	0.15
586.095	0.14
586.435	0.15
586.776	0.14
587.117	0.14
587.458	0.14
587.798	0.15
588.139	0.15
588.48	0.14
588.82	0.14
589.161	0.14
589.501	0.14
589.841	0.15
590.182	0.14
590.522	0.14
590.862	0.14
591.202	0.14
591.542	0.14
591.882	0.14
592.222	0.14
592.562	0.15
592.902	0.14
593.242	0.14
593.582	0.15
593.922	0.14
594.261	0.14
594.601	0.14
594.941	0.14
595.28	0.14
595.62	0.14
595.959	0.14
596.299	0.14
596.638	0.15
596.977	0.15
597.317	0.15
597.656	0.14
597.995	0.14
598.334	0.15
598.673	0.15
599.012	0.14
599.351	0.15
599.69	0.15
600.029	0.15
600.368	0.15
600.707	0.14
601.046	0.14
601.384	0.15
601.723	0.15
602.061	0.14
602.4	0.14
602.738	0.15
603.077	0.14
603.415	0.14
603.754	0.14
604.092	0.15
604.43	0.15
604.768	0.15
605.107	0.15
605.445	0.14
605.783	0.14
606.121	0.14
606.459	0.15
606.796	0.15
607.134	0.14
607.472	0.15
607.81	0.15
608.148	0.14
608.485	0.15
608.823	0.14
609.16	0.14
609.498	0.15
609.835	0.14
610.173	0.15
610.51	0.15
610.847	0.15
611.185	0.15
611.522	0.16
611.859	0.15
612.196	0.16
612.533	0.16
612.87	0.16
613.207	0.16
613.544	0.15
613.881	0.16
614.217	0.16
614.554	0.15
614.891	0.15
615.228	0.16
615.564	0.15
615.901	0.15
616.237	0.15
616.574	0.15
616.91	0.16
617.246	0.15
617.583	0.15
617.919	0.15
618.255	0.16
618.591	0.15
618.927	0.15
619.263	0.16
619.599	0.15
619.935	0.15
620.271	0.15
620.607	0.15
620.943	0.15
621.279	0.15
621.614	0.15
621.95	0.15
622.286	0.14
622.621	0.14
622.957	0.15
623.292	0.14
623.627	0.14
623.963	0.14
624.298	0.14
624.633	0.14
624.968	0.14
625.304	0.14
625.639	0.14
625.974	0.14
626.309	0.14
626.644	0.14
626.979	0.15
627.313	0.14
627.648	0.15
627.983	0.15
628.318	0.14
628.652	0.14
628.987	0.14
629.321	0.14
629.656	0.14
629.99	0.14
630.325	0.14
630.659	0.14
630.993	0.13
631.327	0.14
631.662	0.13
631.996	0.13
632.33	0.14
632.664	0.14
632.998	0.13
633.332	0.12
633.666	0.14
633.999	0.13
634.333	0.12
634.667	0.13
635.001	0.13
635.334	0.12
635.668	0.13
636.001	0.12
636.335	0.13
636.668	0.13
637.001	0.12
637.335	0.12
637.668	0.13
638.001	0.12
638.334	0.13
638.668	0.12
639.001	0.12
639.334	0.12
639.667	0.13
639.999	0.13
640.332	0.13
640.665	0.13
640.998	0.13
641.331	0.13
641.663	0.13
641.996	0.13
642.328	0.14
642.661	0.13
642.993	0.13
643.326	0.13
643.658	0.12
643.99	0.13
644.323	0.12
644.655	0.13
644.987	0.13
645.319	0.13
645.651	0.13
645.983	0.13
646.315	0.13
646.647	0.13
646.979	0.14
647.31	0.13
647.642	0.13
647.974	0.13
648.305	0.14
648.637	0.13
648.968	0.13
649.3	0.13
649.631	0.13
649.963	0.13
650.294	0.13
650.625	0.13
650.957	0.14
651.288	0.13
651.619	0.13
651.95	0.13
652.281	0.13
652.612	0.13
652.943	0.12
653.274	0.13
653.604	0.13
653.935	0.13
654.266	0.13
654.596	0.13
654.927	0.12
655.258	0.13
655.588	0.13
655.918	0.13
656.249	0.12
656.579	0.12
656.909	0.12
657.24	0.12
657.57	0.13
657.9	0.13
658.23	0.12
658.56	0.13
658.89	0.14
659.22	0.12
659.55	0.13
659.88	0.13
660.209	0.13
660.539	0.14
660.869	0.13
661.198	0.13
661.528	0.12
661.857	0.12
662.187	0.13
662.516	0.13
662.846	0.12
663.175	0.13
663.504	0.12
663.833	0.12
664.163	0.12
664.492	0.12
664.821	0.12
665.15	0.12
665.479	0.12
665.807	0.12
666.136	0.12
666.465	0.12
666.794	0.12
667.122	0.12
667.451	0.11
667.78	0.12
668.108	0.12
668.437	0.12
668.765	0.12
669.093	0.12
669.422	0.12
669.75	0.12
670.078	0.12
670.406	0.12
670.734	0.12
671.062	0.11
671.39	0.12
671.718	0.11
672.046	0.11
672.374	0.12
672.702	0.12
673.029	0.11
673.357	0.12
673.685	0.12
674.012	0.11
674.34	0.11
674.667	0.12
674.995	0.12
675.322	0.12
675.649	0.11
675.977	0.12
676.304	0.11
676.631	0.11
676.958	0.11
677.285	0.1
677.612	0.1
677.939	0.11
678.266	0.11
678.593	0.1
678.92	0.11
679.246	0.1
679.573	0.1
679.9	0.1
680.226	0.1
680.553	0.09
680.879	0.1
681.206	0.1
681.532	0.1
681.858	0.09
682.184	0.1
682.511	0.1
682.837	0.09
683.163	0.09
683.489	0.09
683.815	0.1
684.141	0.1
684.467	0.1
684.793	0.1
685.118	0.1
685.444	0.1
685.77	0.1
686.095	0.1
686.421	0.1
686.746	0.1
687.072	0.1
687.397	0.1
687.723	0.11
688.048	0.1
688.373	0.09
688.698	0.1
689.023	0.1
689.349	0.1
689.674	0.1
689.999	0.09
690.323	0.09
690.648	0.09
690.973	0.08
691.298	0.09
691.623	0.09
691.947	0.09
692.272	0.09
692.596	0.09
692.921	0.09
693.245	0.09
693.57	0.09
693.894	0.09
694.218	0.09
694.543	0.09
694.867	0.08
695.191	0.08
695.515	0.08
695.839	0.08
696.163	0.09
696.487	0.09
696.811	0.08
697.135	0.09
697.458	0.09
697.782	0.09
698.106	0.09
698.429	0.09
698.753	0.09
699.076	0.08
699.4	0.08
699.723	0.08
700.046	0.09
700.37	0.09
700.693	0.09
701.016	0.09
701.339	0.09
701.662	0.09
701.985	0.09
702.308	0.08
702.631	0.09
702.954	0.09
703.277	0.08
703.599	0.09
703.922	0.08
704.245	0.08
704.567	0.08
704.89	0.07
705.212	0.08
705.535	0.08
705.857	0.08
706.179	0.07
706.502	0.07
706.824	0.07
707.146	0.07
707.468	0.07
707.79	0.07
708.112	0.08
708.434	0.07
708.756	0.06
709.078	0.07
709.399	0.07
709.721	0.07
710.043	0.07
710.364	0.07
710.686	0.07
711.007	0.07
711.329	0.08
711.65	0.07
711.972	0.07
712.293	0.08
712.614	0.07
712.935	0.07
713.256	0.07
713.577	0.08
713.898	0.07
714.219	0.08
714.54	0.07
714.861	0.07
715.182	0.08
715.503	0.07
715.823	0.07
716.144	0.07
716.464	0.06
716.785	0.07
717.105	0.07
717.426	0.08
717.746	0.07
718.066	0.07
718.387	0.07
718.707	0.06
719.027	0.07
719.347	0.06
719.667	0.06
719.987	0.06
720.307	0.06
720.627	0.06
720.947	0.07
721.266	0.06
721.586	0.06
721.906	0.06
722.225	0.06
722.545	0.06
722.864	0.06
723.184	0.07
723.503	0.06
723.823	0.06
724.142	0.06
724.461	0.06
724.78	0.07
725.099	0.07
725.418	0.06
725.737	0.06
726.056	0.07
726.375	0.07
726.694	0.07
727.013	0.07
727.331	0.06
727.65	0.06
727.969	0.06
728.287	0.06
728.606	0.07
728.924	0.05
729.242	0.06
729.561	0.06
729.879	0.06
730.197	0.06
730.515	0.05
730.834	0.06
731.152	0.05
731.47	0.05
731.788	0.06
732.105	0.05
732.423	0.05
732.741	0.05
733.059	0.05
733.376	0.06
733.694	0.05
734.012	0.06
734.329	0.06
734.647	0.05
734.964	0.07
735.281	0.07
735.599	0.06
735.916	0.07
736.233	0.05
736.55	0.05
736.867	0.06
737.184	0.07
737.501	0.06
737.818	0.05
738.135	0.07
738.452	0.06
738.768	0.06
739.085	0.06
739.402	0.05
739.718	0.06
740.035	0.06
740.351	0.06
740.668	0.07
740.984	0.05
741.3	0.05
741.617	0.07
741.933	0.05
742.249	0.06
742.565	0.06
742.881	0.06
743.197	0.06
743.513	0.06
743.829	0.05
744.144	0.05
744.46	0.05
744.776	0.06
745.091	0.05
745.407	0.06
745.722	0.04
746.038	0.05
746.353	0.04
746.669	0.06
746.984	0.04
747.299	0.05
747.614	0.05
747.93	0.06
748.245	0.05
748.56	0.05
748.875	0.05
749.189	0.06
749.504	0.05
749.819	0.06
750.134	0.05
750.448	0.04
750.763	0.05
751.078	0.03
751.392	0.04
751.707	0.06
752.021	0.06
752.335	0.06
752.65	0.06
752.964	0.05
753.278	0.06
753.592	0.06
753.906	0.05
754.22	0.05
754.534	0.05
754.848	0.05
755.162	0.05
755.476	0.05
755.789	0.06
756.103	0.05
756.417	0.05
756.73	0.06
757.044	0.05
757.357	0.06
757.671	0.06
757.984	0.05
758.297	0.06
758.61	0.06
758.924	0.05
759.237	0.06
759.55	0.05
759.863	0.05
760.176	0.06
760.488	0.05
760.801	0.05
761.114	0.05
761.427	0.04
761.739	0.06
762.052	0.05
762.365	0.05
762.677	0.05
762.99	0.04
763.302	0.04
763.614	0.05
763.926	0.05
764.239	0.05
764.551	0.05
764.863	0.05
765.175	0.05
765.487	0.05
765.799	0.04
766.111	0.04
766.423	0.05
766.734	0.05
767.046	0.04
767.358	0.05
767.669	0.05
767.981	0.05
768.292	0.05
768.604	0.05
768.915	0.04
769.226	0.05
769.537	0.04
769.849	0.04
770.16	0.04
770.471	0.04
770.782	0.04
771.093	0.05
771.404	0.03
771.715	0.03
772.025	0.04
772.336	0.04
772.647	0.03
772.957	0.03
773.268	0.04
773.578	0.04
773.889	0.04
774.199	0.04
774.51	0.04
774.82	0.04
775.13	0.04
775.44	0.04
775.75	0.05
776.06	0.04
776.37	0.04
776.68	0.05
776.99	0.04
777.3	0.04
777.61	0.04
777.92	0.03
778.229	0.04
778.539	0.04
778.848	0.04
779.158	0.04
779.467	0.04
779.777	0.04
780.086	0.04
780.395	0.04
780.704	0.04
781.013	0.04
781.323	0.04
781.632	0.04
781.941	0.04
782.249	0.04
782.558	0.03
782.867	0.04
783.176	0.03
783.485	0.04
783.793	0.04
784.102	0.03
784.41	0.03
784.719	0.03
785.027	0.03
785.335	0.03
785.644	0.04
785.952	0.03
786.26	0.04
786.568	0.04
786.876	0.04
787.184	0.04
787.492	0.04
787.8	0.04
788.108	0.04
788.416	0.04
788.723	0.04
789.031	0.03
789.338	0.04
789.646	0.04
789.953	0.05
790.261	0.04
790.568	0.05
790.876	0.04
791.183	0.04
791.49	0.03
791.797	0.04
792.104	0.04
792.411	0.05
792.718	0.04
793.025	0.05
793.332	0.05
793.639	0.05
793.945	0.06
794.252	0.05
794.559	0.04
794.865	0.04
795.172	0.05
795.478	0.05
795.784	0.05
796.091	0.04
796.397	0.05
796.703	0.05
797.009	0.05
797.315	0.05
797.622	0.05
797.927	0.04
798.233	0.04
798.539	0.04
798.845	0.04
799.151	0.04
799.456	0.04
799.762	0.03
800.068	0.04
800.373	0.05
800.679	0.04
800.984	0.04
801.289	0.03
801.595	0.04
801.9	0.04
802.205	0.04
802.51	0.03
802.815	0.04
803.12	0.04
803.425	0.04
803.73	0.03
804.035	0.03
804.339	0.03
804.644	0.03
804.949	0.04
805.253	0.04
805.558	0.04
805.862	0.04
806.167	0.04
806.471	0.03
806.775	0.04
807.08	0.03
807.384	0.04
807.688	0.04
807.992	0.04
808.296	0.04
808.6	0.04
808.904	0.04
809.207	0.04
809.511	0.04
809.815	0.05
810.119	0.04
810.422	0.04
810.726	0.05
811.029	0.05
811.332	0.04
811.636	0.05
811.939	0.04
812.242	0.05
812.546	0.05
812.849	0.04
813.152	0.05
813.455	0.05
813.758	0.04
814.06	0.04
814.363	0.04
814.666	0.05
814.969	0.05
815.271	0.05
815.574	0.05
815.877	0.05
816.179	0.04
816.481	0.04
816.784	0.05
817.086	0.03
817.388	0.04
817.69	0.04
817.993	0.03
818.295	0.03
818.597	0.04
818.899	0.03
819.2	0.03
819.502	0.02
819.804	0.04
820.106	0.03
820.407	0.03
820.709	0.03
821.01	0.03
821.312	0.03
821.613	0.02
821.915	0.02
822.216	0.02
822.517	0.02
822.818	0.02
823.119	0.03
823.42	0.03
823.721	0.01
824.022	0.01
824.323	0.03
824.624	0.01
824.925	0.03
825.226	0.03
825.526	0.01
825.827	0.02
826.127	0.02
826.428	0.02
826.728	0.01
827.028	0.02
827.329	0.02
827.629	0.01
827.929	0.01
828.229	0.02
828.529	0.02
828.829	0.02
829.129	0.02
829.429	0.02
829.729	0.02
830.029	0.02
830.328	0.02
830.628	0.01
830.927	0.01
831.227	0.01
831.526	0.02
831.826	0.02
832.125	0.01
832.424	0.01
832.724	0.01
833.023	0.01
833.322	0.01
833.621	0.02
833.92	0
834.219	0
834.518	0.01
834.816	-0
835.115	0.01
835.414	0
835.712	-0
836.011	-0
836.309	-0
836.608	-0.01
836.906	-0.01
837.205	-0.01
837.503	-0.01
837.801	-0.01
838.099	-0.02
838.397	-0.03
838.695	-0.02
838.993	-0.02
839.291	-0.03
839.589	-0.02
839.887	-0.02
840.184	-0.04
840.482	-0.04
840.78	-0.03
841.077	-0.03
841.375	-0.04
841.672	-0.03
841.969	-0.04
842.267	-0.04
842.564	-0.04
842.861	-0.03
843.158	-0.03
843.455	-0.06
843.752	-0.04
844.049	-0.05
844.346	-0.05
844.643	-0.05
844.94	-0.06
845.236	-0.03
845.533	-0.04
845.83	-0.05
846.126	-0.04
846.423	-0.05
846.719	-0.05
847.015	-0.05
847.312	-0.05
847.608	-0.06
847.904	-0.06
848.2	-0.06
848.496	-0.06
848.792	-0.06
849.088	-0.05
849.384	-0.06
849.68	-0.08
849.975	-0.07
850.271	-0.07
850.567	-0.08
850.862	-0.08
851.158	-0.08
851.453	-0.08
851.748	-0.1
852.044	-0.09
852.339	-0.09
852.634	-0.11
852.929	-0.09
853.224	-0.1
853.519	-0.1
853.814	-0.09
854.109	-0.1
854.404	-0.11
854.699	-0.11
854.994	-0.11
855.288	-0.11
855.583	-0.1
855.877	-0.11
856.172	-0.1
856.466	-0.11
856.76	-0.11
857.055	-0.11
857.349	-0.12
857.643	-0.13
857.937	-0.13
858.231	-0.13
858.525	-0.12
858.819	-0.12
859.113	-0.13
859.407	-0.13
859.701	-0.13
859.994	-0.13
860.288	-0.12
860.581	-0.13
860.875	-0.13
861.168	-0.13
861.462	-0.13
861.755	-0.13
862.048	-0.14
862.341	-0.13
862.634	-0.13
862.928	-0.12
863.221	-0.12
863.513	-0.13
863.806	-0.13
864.099	-0.13
864.392	-0.13
864.685	-0.12
864.977	-0.12
865.27	-0.13
865.562	-0.13
865.855	-0.13
866.147	-0.13
866.44	-0.13
866.732	-0.13
867.024	-0.14
867.316	-0.14
867.608	-0.14
867.9	-0.14
868.192	-0.14
868.484	-0.14
868.776	-0.14
869.068	-0.14
869.359	-0.14
869.651	-0.14
869.943	-0.16
870.234	-0.15
870.526	-0.15
870.817	-0.15
871.108	-0.14
871.4	-0.14
871.691	-0.14
871.982	-0.16
872.273	-0.15
872.564	-0.16
872.855	-0.16
873.146	-0.15
873.437	-0.17
873.728	-0.17
874.019	-0.16
874.309	-0.16
874.6	-0.16
874.89	-0.17
875.181	-0.16
875.471	-0.16
875.762	-0.16
876.052	-0.16
876.342	-0.15
876.632	-0.16
876.922	-0.17
877.213	-0.16
877.503	-0.18
877.792	-0.17
878.082	-0.17
878.372	-0.16
878.662	-0.19
878.952	-0.18
879.241	-0.18
879.531	-0.17
879.82	-0.17
880.11	-0.18
880.399	-0.17
880.688	-0.15
880.978	-0.15
881.267	-0.15
