Data from 12-12-AQDScycling_Absorbance__171__00171.txt Node

Date: Tue Dec 12 11:39:29 EST 2023
User: kyuminlee
Spectrometer: FLMS00943
Trigger mode: 0
Integration Time (sec): 1.000000E-1
Scans to average: 1
Electric dark correction enabled: true
Nonlinearity correction enabled: false
Boxcar width: 0
XAxis mode: Wavelengths
Number of Pixels in Spectrum: 2048
>>>>>Begin Spectral Data<<<<<
179.651	-0
180.037	-0
180.424	-0
180.81	0.16
181.197	0.3
181.583	-0.5
181.97	0.36
182.356	-0.49
182.743	-0
183.129	0.25
183.515	1.33
183.901	-0
184.288	0.15
184.674	-0
185.06	-0.65
185.446	1
185.832	-1.13
186.218	0.22
186.604	1.65
186.99	-0.17
187.376	0.76
187.762	0.58
188.148	0.43
188.534	-0.28
188.92	0.14
189.305	-0
189.691	0.17
190.077	0.2
190.463	0.05
190.848	0.04
191.234	0.11
191.619	0.05
192.005	0.19
192.391	0.1
192.776	0.13
193.161	0.26
193.547	0.07
193.932	0.08
194.318	-0.01
194.703	0.19
195.088	0.17
195.473	0.32
195.859	0.18
196.244	0.18
196.629	0.12
197.014	0.17
197.399	0.12
197.784	0.24
198.169	0.1
198.554	0.21
198.939	0.11
199.324	0.06
199.709	-0.01
200.094	0.19
200.478	0.07
200.863	0.18
201.248	0.2
201.633	0.22
202.017	0.16
202.402	0.19
202.787	0.16
203.171	0.09
203.556	0.33
203.94	0.11
204.325	0.22
204.709	0.16
205.093	0.2
205.478	0.16
205.862	0.15
206.246	0.33
206.631	0.18
207.015	0.1
207.399	0.26
207.783	0.05
208.167	0.22
208.551	0.19
208.935	0.16
209.319	0.12
209.703	0.12
210.087	0.2
210.471	0.07
210.855	0.22
211.239	0.18
211.623	0.29
212.007	0.24
212.39	0.27
212.774	0.26
213.158	0.1
213.541	0.24
213.925	0.32
214.309	0.33
214.692	0.2
215.076	0.21
215.459	0.1
215.842	0.23
216.226	0.24
216.609	0.22
216.993	0.31
217.376	0.34
217.759	0.32
218.142	0.29
218.525	0.5
218.909	0.3
219.292	0.25
219.675	0.42
220.058	0.48
220.441	0.59
220.824	0.44
221.207	0.57
221.59	0.41
221.973	0.45
222.355	0.56
222.738	0.65
223.121	0.63
223.504	0.64
223.886	0.61
224.269	0.73
224.652	0.59
225.034	0.68
225.417	0.71
225.799	0.83
226.182	0.8
226.564	1.03
226.947	0.75
227.329	0.79
227.711	0.77
228.094	0.93
228.476	0.93
228.858	0.73
229.24	0.91
229.623	0.91
230.005	0.78
230.387	0.88
230.769	0.91
231.151	0.97
231.533	0.89
231.915	0.86
232.297	1.19
232.679	1.09
233.061	0.99
233.442	0.98
233.824	1.03
234.206	1.08
234.588	1.15
234.969	1.05
235.351	0.95
235.733	0.97
236.114	1.17
236.496	1.08
236.877	1.11
237.259	1.03
237.64	1.08
238.022	0.99
238.403	1.06
238.784	0.94
239.165	0.98
239.547	1.08
239.928	1
240.309	0.96
240.69	1.05
241.071	1.17
241.452	1.09
241.834	1.11
242.215	1.1
242.595	1.19
242.976	1.13
243.357	1.19
243.738	0.99
244.119	1.31
244.5	1.14
244.881	1.24
245.261	1.3
245.642	1.15
246.023	1.23
246.403	1.3
246.784	1.25
247.164	1.16
247.545	1.28
247.925	1.21
248.306	1.29
248.686	1.26
249.067	1.26
249.447	1.46
249.827	1.5
250.207	1.57
250.588	1.3
250.968	1.49
251.348	1.38
251.728	1.41
252.108	1.26
252.488	1.39
252.868	1.33
253.248	1.28
253.628	1.42
254.008	1.45
254.388	1.26
254.768	1.41
255.147	1.33
255.527	1.45
255.907	1.3
256.287	1.32
256.666	1.46
257.046	1.54
257.425	1.55
257.805	1.44
258.184	1.39
258.564	1.39
258.943	1.41
259.323	1.57
259.702	1.42
260.081	1.35
260.461	1.54
260.84	1.58
261.219	1.65
261.598	1.51
261.977	1.44
262.356	1.67
262.736	1.57
263.115	1.47
263.494	1.45
263.873	1.43
264.251	1.46
264.63	1.57
265.009	1.4
265.388	1.37
265.767	1.39
266.145	1.49
266.524	1.31
266.903	1.38
267.281	1.47
267.66	1.48
268.039	1.55
268.417	1.33
268.796	1.32
269.174	1.38
269.552	1.27
269.931	1.51
270.309	1.33
270.687	1.68
271.066	1.7
271.444	1.46
271.822	1.5
272.2	1.38
272.578	1.36
272.956	1.46
273.334	1.41
273.712	1.44
274.09	1.51
274.468	1.45
274.846	1.36
275.224	1.33
275.602	1.56
275.98	1.64
276.357	1.36
276.735	1.42
277.113	1.4
277.49	1.3
277.868	1.35
278.246	1.45
278.623	1.31
279.001	1.34
279.378	1.4
279.756	1.66
280.133	1.6
280.51	1.37
280.888	1.54
281.265	1.37
281.642	1.42
282.019	1.48
282.396	1.43
282.773	1.42
283.151	1.51
283.528	1.41
283.905	1.44
284.282	1.35
284.659	1.53
285.035	1.39
285.412	1.43
285.789	1.57
286.166	1.4
286.543	1.47
286.919	1.53
287.296	1.44
287.673	1.5
288.049	1.48
288.426	1.52
288.802	1.53
289.179	1.51
289.555	1.76
289.932	1.57
290.308	1.4
290.684	1.38
291.061	1.27
291.437	1.66
291.813	1.36
292.189	1.3
292.565	1.38
292.942	1.32
293.318	1.41
293.694	1.41
294.07	1.41
294.446	1.45
294.822	1.55
295.197	1.35
295.573	1.5
295.949	1.45
296.325	1.56
296.701	1.48
297.076	1.64
297.452	1.53
297.828	1.42
298.203	1.51
298.579	1.38
298.954	1.36
299.33	1.44
299.705	1.5
300.081	1.46
300.456	1.4
300.831	1.28
301.206	1.41
301.582	1.53
301.957	1.4
302.332	1.43
302.707	1.32
303.082	1.38
303.457	1.41
303.832	1.35
304.207	1.31
304.582	1.32
304.957	1.34
305.332	1.32
305.707	1.36
306.082	1.36
306.456	1.37
306.831	1.31
307.206	1.32
307.58	1.33
307.955	1.3
308.33	1.3
308.704	1.28
309.079	1.24
309.453	1.27
309.828	1.36
310.202	1.24
310.576	1.28
310.951	1.25
311.325	1.23
311.699	1.31
312.073	1.24
312.447	1.2
312.821	1.26
313.196	1.23
313.57	1.22
313.944	1.21
314.317	1.19
314.691	1.26
315.065	1.29
315.439	1.36
315.813	1.26
316.187	1.29
316.56	1.41
316.934	1.4
317.308	1.3
317.681	1.34
318.055	1.23
318.428	1.19
318.802	1.27
319.175	1.26
319.549	1.24
319.922	1.19
320.295	1.25
320.669	1.32
321.042	1.25
321.415	1.39
321.788	1.28
322.162	1.28
322.535	1.27
322.908	1.24
323.281	1.27
323.654	1.38
324.027	1.25
324.4	1.3
324.773	1.34
325.145	1.36
325.518	1.21
325.891	1.22
326.264	1.38
326.636	1.23
327.009	1.31
327.382	1.37
327.754	1.38
328.127	1.25
328.499	1.37
328.872	1.32
329.244	1.3
329.616	1.34
329.989	1.24
330.361	1.33
330.733	1.28
331.106	1.24
331.478	1.3
331.85	1.3
332.222	1.3
332.594	1.37
332.966	1.29
333.338	1.42
333.71	1.35
334.082	1.41
334.454	1.3
334.826	1.3
335.197	1.34
335.569	1.27
335.941	1.3
336.312	1.29
336.684	1.36
337.056	1.32
337.427	1.45
337.799	1.37
338.17	1.37
338.542	1.35
338.913	1.39
339.284	1.32
339.656	1.32
340.027	1.29
340.398	1.45
340.769	1.38
341.141	1.45
341.512	1.35
341.883	1.34
342.254	1.4
342.625	1.42
342.996	1.42
343.367	1.37
343.738	1.41
344.108	1.35
344.479	1.43
344.85	1.3
345.221	1.33
345.591	1.16
345.962	1.34
346.333	1.39
346.703	1.22
347.074	1.27
347.444	1.27
347.815	1.33
348.185	1.36
348.556	1.23
348.926	1.29
349.296	1.26
349.666	1.24
350.037	1.17
350.407	1.22
350.777	1.25
351.147	1.26
351.517	1.27
351.887	1.26
352.257	1.33
352.627	1.31
352.997	1.29
353.367	1.31
353.737	1.41
354.106	1.41
354.476	1.26
354.846	1.38
355.216	1.39
355.585	1.33
355.955	1.34
356.324	1.32
356.694	1.36
357.063	1.35
357.433	1.34
357.802	1.37
358.171	1.34
358.541	1.37
358.91	1.44
359.279	1.41
359.648	1.37
360.017	1.3
360.387	1.54
360.756	1.38
361.125	1.47
361.494	1.41
361.863	1.34
362.231	1.42
362.6	1.38
362.969	1.49
363.338	1.4
363.707	1.67
364.075	1.51
364.444	1.35
364.813	1.48
365.181	1.42
365.55	1.41
365.918	1.48
366.287	1.41
366.655	1.44
367.024	1.41
367.392	1.51
367.76	1.48
368.128	1.49
368.497	1.49
368.865	1.39
369.233	1.51
369.601	1.45
369.969	1.48
370.337	1.49
370.705	1.41
371.073	1.44
371.441	1.53
371.809	1.43
372.177	1.4
372.544	1.41
372.912	1.46
373.28	1.5
373.647	1.58
374.015	1.69
374.383	2.02
374.75	1.75
375.118	1.5
375.485	1.55
375.853	1.5
376.22	1.52
376.587	1.42
376.955	1.59
377.322	1.6
377.689	1.46
378.056	1.53
378.423	1.39
378.79	1.46
379.157	1.48
379.524	1.51
379.891	1.45
380.258	1.58
380.625	1.49
380.992	1.6
381.359	1.55
381.726	1.78
382.092	1.47
382.459	1.52
382.826	1.51
383.192	1.54
383.559	1.5
383.925	1.51
384.292	1.47
384.658	1.62
385.025	1.58
385.391	1.69
385.757	1.59
386.123	1.66
386.49	1.57
386.856	1.49
387.222	1.43
387.588	1.47
387.954	1.73
388.32	1.64
388.686	1.71
389.052	1.64
389.418	1.59
389.784	1.43
390.15	1.54
390.515	1.42
390.881	1.73
391.247	1.48
391.613	1.62
391.978	1.45
392.344	1.71
392.709	1.61
393.075	1.6
393.44	1.5
393.806	1.64
394.171	1.37
394.536	1.47
394.902	1.39
395.267	1.61
395.632	1.53
395.997	1.43
396.362	1.5
396.727	1.58
397.092	1.56
397.457	1.46
397.822	1.66
398.187	1.57
398.552	1.49
398.917	1.69
399.282	1.34
399.646	1.54
400.011	1.67
400.376	1.59
400.74	1.51
401.105	1.44
401.47	1.54
401.834	1.46
402.199	1.51
402.563	1.46
402.927	1.5
403.292	1.59
403.656	1.69
404.02	1.6
404.384	1.75
404.749	1.61
405.113	1.62
405.477	1.49
405.841	1.59
406.205	1.53
406.569	1.46
406.933	1.51
407.296	1.45
407.66	1.43
408.024	1.53
408.388	1.65
408.752	1.44
409.115	1.58
409.479	1.72
409.842	1.43
410.206	1.4
410.569	1.42
410.933	1.42
411.296	1.32
411.66	1.6
412.023	1.36
412.386	1.37
412.749	1.4
413.113	1.49
413.476	1.35
413.839	1.42
414.202	1.39
414.565	1.28
414.928	1.42
415.291	1.43
415.654	1.42
416.017	1.45
416.38	1.4
416.742	1.34
417.105	1.35
417.468	1.36
417.83	1.45
418.193	1.47
418.556	1.44
418.918	1.27
419.281	1.28
419.643	1.5
420.005	1.42
420.368	1.4
420.73	1.35
421.092	1.42
421.455	1.4
421.817	1.25
422.179	1.33
422.541	1.4
422.903	1.37
423.265	1.49
423.627	1.39
423.989	1.34
424.351	1.31
424.713	1.49
425.075	1.35
425.436	1.37
425.798	1.3
426.16	1.39
426.521	1.38
426.883	1.42
427.245	1.37
427.606	1.28
427.967	1.22
428.329	1.33
428.69	1.36
429.052	1.29
429.413	1.4
429.774	1.39
430.135	1.38
430.497	1.36
430.858	1.32
431.219	1.33
431.58	1.26
431.941	1.34
432.302	1.19
432.663	1.26
433.024	1.36
433.384	1.26
433.745	1.23
434.106	1.33
434.467	1.33
434.827	1.26
435.188	1.25
435.548	1.31
435.909	1.29
436.269	1.33
436.63	1.29
436.99	1.25
437.351	1.18
437.711	1.24
438.071	1.23
438.431	1.22
438.792	1.23
439.152	1.2
439.512	1.17
439.872	1.2
440.232	1.22
440.592	1.24
440.952	1.18
441.312	1.17
441.671	1.19
442.031	1.14
442.391	1.15
442.751	1.14
443.11	1.19
443.47	1.15
443.83	1.1
444.189	1.14
444.549	1.13
444.908	1.1
445.267	1.1
445.627	1.14
445.986	1.12
446.345	1.08
446.705	1.09
447.064	1.08
447.423	1.09
447.782	1.06
448.141	1.09
448.5	1.02
448.859	1.06
449.218	1.02
449.577	1.08
449.936	1.05
450.295	1.01
450.653	1.02
451.012	1.01
451.371	1
451.729	1.01
452.088	0.99
452.447	0.99
452.805	0.98
453.163	0.98
453.522	0.98
453.88	0.96
454.239	0.97
454.597	0.92
454.955	0.92
455.313	0.91
455.671	0.93
456.029	0.9
456.388	0.89
456.746	0.88
457.104	0.87
457.461	0.85
457.819	0.87
458.177	0.84
458.535	0.83
458.893	0.84
459.25	0.83
459.608	0.8
459.966	0.79
460.323	0.78
460.681	0.77
461.038	0.76
461.396	0.77
461.753	0.75
462.111	0.74
462.468	0.73
462.825	0.72
463.182	0.72
463.54	0.69
463.897	0.72
464.254	0.69
464.611	0.68
464.968	0.67
465.325	0.66
465.682	0.66
466.039	0.64
466.395	0.64
466.752	0.64
467.109	0.61
467.466	0.61
467.822	0.61
468.179	0.59
468.535	0.59
468.892	0.58
469.248	0.57
469.605	0.56
469.961	0.55
470.318	0.56
470.674	0.54
471.03	0.53
471.386	0.53
471.743	0.52
472.099	0.51
472.455	0.5
472.811	0.49
473.167	0.49
473.523	0.47
473.879	0.47
474.235	0.47
474.59	0.46
474.946	0.45
475.302	0.44
475.657	0.43
476.013	0.44
476.369	0.43
476.724	0.42
477.08	0.42
477.435	0.4
477.791	0.42
478.146	0.4
478.501	0.39
478.857	0.39
479.212	0.39
479.567	0.38
479.922	0.37
480.277	0.37
480.632	0.36
480.987	0.35
481.342	0.35
481.697	0.34
482.052	0.34
482.407	0.33
482.762	0.33
483.116	0.32
483.471	0.32
483.826	0.31
484.18	0.3
484.535	0.3
484.89	0.29
485.244	0.3
485.598	0.29
485.953	0.29
486.307	0.29
486.661	0.29
487.016	0.28
487.37	0.28
487.724	0.27
488.078	0.27
488.432	0.26
488.786	0.27
489.14	0.26
489.494	0.25
489.848	0.25
490.202	0.24
490.556	0.24
490.91	0.25
491.263	0.24
491.617	0.24
491.971	0.24
492.324	0.23
492.678	0.23
493.031	0.23
493.385	0.23
493.738	0.22
494.091	0.22
494.445	0.22
494.798	0.21
495.151	0.22
495.504	0.21
495.857	0.21
496.21	0.21
496.564	0.21
496.916	0.22
497.269	0.2
497.622	0.21
497.975	0.2
498.328	0.21
498.681	0.2
499.033	0.2
499.386	0.2
499.739	0.19
500.091	0.19
500.444	0.19
500.796	0.19
501.149	0.18
501.501	0.19
501.854	0.19
502.206	0.19
502.558	0.19
502.91	0.18
503.263	0.18
503.615	0.18
503.967	0.18
504.319	0.18
504.671	0.18
505.023	0.17
505.375	0.18
505.726	0.18
506.078	0.17
506.43	0.17
506.782	0.17
507.133	0.16
507.485	0.17
507.837	0.18
508.188	0.18
508.54	0.17
508.891	0.18
509.243	0.17
509.594	0.17
509.945	0.16
510.296	0.16
510.648	0.17
510.999	0.16
511.35	0.17
511.701	0.16
512.052	0.17
512.403	0.17
512.754	0.16
513.105	0.16
513.456	0.16
513.807	0.16
514.157	0.16
514.508	0.16
514.859	0.15
515.209	0.15
515.56	0.15
515.91	0.14
516.261	0.16
516.611	0.15
516.962	0.16
517.312	0.16
517.662	0.15
518.013	0.15
518.363	0.16
518.713	0.16
519.063	0.15
519.413	0.15
519.763	0.15
520.113	0.15
520.463	0.16
520.813	0.15
521.163	0.16
521.512	0.15
521.862	0.16
522.212	0.16
522.562	0.15
522.911	0.15
523.261	0.16
523.61	0.16
523.96	0.16
524.309	0.16
524.658	0.16
525.008	0.15
525.357	0.15
525.706	0.16
526.056	0.16
526.405	0.16
526.754	0.15
527.103	0.16
527.452	0.16
527.801	0.16
528.15	0.16
528.499	0.16
528.847	0.16
529.196	0.16
529.545	0.16
529.893	0.17
530.242	0.16
530.591	0.17
530.939	0.17
531.288	0.17
531.636	0.17
531.985	0.16
532.333	0.17
532.681	0.17
533.029	0.16
533.378	0.16
533.726	0.16
534.074	0.17
534.422	0.16
534.77	0.17
535.118	0.16
535.466	0.16
535.814	0.16
536.162	0.16
536.509	0.17
536.857	0.16
537.205	0.16
537.552	0.17
537.9	0.17
538.248	0.16
538.595	0.17
538.943	0.17
539.29	0.16
539.637	0.16
539.985	0.15
540.332	0.16
540.679	0.15
541.026	0.16
541.373	0.16
541.721	0.15
542.068	0.16
542.415	0.16
542.762	0.15
543.108	0.15
543.455	0.15
543.802	0.15
544.149	0.15
544.496	0.16
544.842	0.15
545.189	0.15
545.535	0.15
545.882	0.15
546.228	0.16
546.575	0.15
546.921	0.15
547.267	0.15
547.614	0.16
547.96	0.16
548.306	0.16
548.652	0.15
548.998	0.16
549.344	0.16
549.69	0.16
550.036	0.16
550.382	0.15
550.728	0.16
551.074	0.17
551.42	0.16
551.765	0.17
552.111	0.16
552.457	0.17
552.802	0.17
553.148	0.16
553.493	0.17
553.839	0.17
554.184	0.17
554.529	0.16
554.875	0.17
555.22	0.17
555.565	0.16
555.91	0.16
556.255	0.18
556.6	0.17
556.945	0.16
557.29	0.17
557.635	0.17
557.98	0.16
558.325	0.16
558.67	0.17
559.014	0.17
559.359	0.16
559.704	0.16
560.048	0.15
560.393	0.16
560.737	0.15
561.082	0.16
561.426	0.15
561.77	0.16
562.115	0.15
562.459	0.15
562.803	0.16
563.147	0.15
563.491	0.16
563.835	0.17
564.179	0.16
564.523	0.16
564.867	0.15
565.211	0.15
565.555	0.16
565.899	0.16
566.242	0.16
566.586	0.16
566.93	0.16
567.273	0.17
567.617	0.17
567.96	0.17
568.304	0.17
568.647	0.16
568.99	0.17
569.334	0.17
569.677	0.16
570.02	0.16
570.363	0.17
570.706	0.17
571.049	0.16
571.392	0.17
571.735	0.16
572.078	0.16
572.421	0.17
572.764	0.16
573.106	0.16
573.449	0.16
573.792	0.16
574.134	0.16
574.477	0.17
574.819	0.16
575.162	0.16
575.504	0.16
575.847	0.17
576.189	0.17
576.531	0.17
576.873	0.17
577.215	0.16
577.558	0.16
577.9	0.16
578.242	0.16
578.584	0.15
578.926	0.15
579.267	0.16
579.609	0.16
579.951	0.16
580.293	0.16
580.634	0.17
580.976	0.16
581.318	0.15
581.659	0.15
582.001	0.16
582.342	0.15
582.683	0.16
583.025	0.15
583.366	0.15
583.707	0.16
584.049	0.16
584.39	0.16
584.731	0.15
585.072	0.16
585.413	0.16
585.754	0.16
586.095	0.17
586.435	0.16
586.776	0.17
587.117	0.16
587.458	0.16
587.798	0.16
588.139	0.16
588.48	0.16
588.82	0.16
589.161	0.16
589.501	0.15
589.841	0.15
590.182	0.15
590.522	0.15
590.862	0.16
591.202	0.16
591.542	0.16
591.882	0.16
592.222	0.15
592.562	0.16
592.902	0.15
593.242	0.15
593.582	0.16
593.922	0.16
594.261	0.16
594.601	0.16
594.941	0.15
595.28	0.16
595.62	0.16
595.959	0.15
596.299	0.16
596.638	0.15
596.977	0.16
597.317	0.16
597.656	0.15
597.995	0.15
598.334	0.16
598.673	0.15
599.012	0.14
599.351	0.15
599.69	0.15
600.029	0.16
600.368	0.16
600.707	0.16
601.046	0.16
601.384	0.16
601.723	0.15
602.061	0.14
602.4	0.16
602.738	0.16
603.077	0.15
603.415	0.15
603.754	0.16
604.092	0.16
604.43	0.15
604.768	0.15
605.107	0.16
605.445	0.14
605.783	0.15
606.121	0.15
606.459	0.15
606.796	0.15
607.134	0.15
607.472	0.14
607.81	0.15
608.148	0.14
608.485	0.15
608.823	0.15
609.16	0.14
609.498	0.15
609.835	0.15
610.173	0.15
610.51	0.15
610.847	0.16
611.185	0.16
611.522	0.15
611.859	0.15
612.196	0.16
612.533	0.16
612.87	0.15
613.207	0.15
613.544	0.16
613.881	0.16
614.217	0.16
614.554	0.16
614.891	0.16
615.228	0.16
615.564	0.16
615.901	0.16
616.237	0.16
616.574	0.16
616.91	0.16
617.246	0.17
617.583	0.16
617.919	0.16
618.255	0.17
618.591	0.16
618.927	0.17
619.263	0.16
619.599	0.16
619.935	0.17
620.271	0.16
620.607	0.16
620.943	0.16
621.279	0.16
621.614	0.16
621.95	0.16
622.286	0.16
622.621	0.15
622.957	0.15
623.292	0.15
623.627	0.14
623.963	0.14
624.298	0.15
624.633	0.15
624.968	0.14
625.304	0.15
625.639	0.14
625.974	0.15
626.309	0.14
626.644	0.15
626.979	0.15
627.313	0.15
627.648	0.14
627.983	0.15
628.318	0.14
628.652	0.14
628.987	0.15
629.321	0.15
629.656	0.14
629.99	0.14
630.325	0.15
630.659	0.15
630.993	0.14
631.327	0.14
631.662	0.14
631.996	0.14
632.33	0.14
632.664	0.14
632.998	0.14
633.332	0.14
633.666	0.13
633.999	0.14
634.333	0.13
634.667	0.14
635.001	0.13
635.334	0.13
635.668	0.13
636.001	0.13
636.335	0.13
636.668	0.14
637.001	0.13
637.335	0.13
637.668	0.13
638.001	0.13
638.334	0.13
638.668	0.13
639.001	0.13
639.334	0.12
639.667	0.13
639.999	0.13
640.332	0.13
640.665	0.13
640.998	0.13
641.331	0.13
641.663	0.13
641.996	0.13
642.328	0.13
642.661	0.13
642.993	0.13
643.326	0.13
643.658	0.13
643.99	0.12
644.323	0.13
644.655	0.13
644.987	0.13
645.319	0.14
645.651	0.14
645.983	0.13
646.315	0.13
646.647	0.14
646.979	0.15
647.31	0.14
647.642	0.13
647.974	0.13
648.305	0.14
648.637	0.14
648.968	0.14
649.3	0.14
649.631	0.14
649.963	0.13
650.294	0.14
650.625	0.14
650.957	0.14
651.288	0.14
651.619	0.14
651.95	0.14
652.281	0.13
652.612	0.14
652.943	0.13
653.274	0.13
653.604	0.13
653.935	0.13
654.266	0.13
654.596	0.13
654.927	0.13
655.258	0.13
655.588	0.13
655.918	0.13
656.249	0.11
656.579	0.13
656.909	0.13
657.24	0.13
657.57	0.14
657.9	0.14
658.23	0.13
658.56	0.14
658.89	0.14
659.22	0.12
659.55	0.13
659.88	0.13
660.209	0.14
660.539	0.14
660.869	0.13
661.198	0.14
661.528	0.13
661.857	0.13
662.187	0.14
662.516	0.13
662.846	0.13
663.175	0.12
663.504	0.13
663.833	0.13
664.163	0.13
664.492	0.12
664.821	0.13
665.15	0.12
665.479	0.13
665.807	0.13
666.136	0.13
666.465	0.12
666.794	0.12
667.122	0.12
667.451	0.13
667.78	0.13
668.108	0.12
668.437	0.11
668.765	0.12
669.093	0.12
669.422	0.12
669.75	0.12
670.078	0.12
670.406	0.12
670.734	0.13
671.062	0.12
671.39	0.12
671.718	0.13
672.046	0.13
672.374	0.12
672.702	0.12
673.029	0.11
673.357	0.12
673.685	0.12
674.012	0.12
674.34	0.12
674.667	0.12
674.995	0.12
675.322	0.12
675.649	0.11
675.977	0.12
676.304	0.12
676.631	0.11
676.958	0.11
677.285	0.1
677.612	0.1
677.939	0.1
678.266	0.12
678.593	0.11
678.92	0.11
679.246	0.1
679.573	0.11
679.9	0.1
680.226	0.11
680.553	0.1
680.879	0.11
681.206	0.11
681.532	0.1
681.858	0.1
682.184	0.1
682.511	0.11
682.837	0.1
683.163	0.11
683.489	0.11
683.815	0.11
684.141	0.11
684.467	0.11
684.793	0.1
685.118	0.11
685.444	0.1
685.77	0.11
686.095	0.11
686.421	0.11
686.746	0.11
687.072	0.11
687.397	0.1
687.723	0.11
688.048	0.12
688.373	0.1
688.698	0.11
689.023	0.11
689.349	0.1
689.674	0.1
689.999	0.1
690.323	0.09
690.648	0.09
690.973	0.09
691.298	0.09
691.623	0.09
691.947	0.09
692.272	0.09
692.596	0.09
692.921	0.1
693.245	0.09
693.57	0.1
693.894	0.1
694.218	0.09
694.543	0.09
694.867	0.09
695.191	0.09
695.515	0.1
695.839	0.09
696.163	0.08
696.487	0.1
696.811	0.09
697.135	0.1
697.458	0.09
697.782	0.09
698.106	0.08
698.429	0.09
698.753	0.09
699.076	0.09
699.4	0.09
699.723	0.09
700.046	0.08
700.37	0.09
700.693	0.09
701.016	0.09
701.339	0.09
701.662	0.1
701.985	0.09
702.308	0.09
702.631	0.09
702.954	0.09
703.277	0.09
703.599	0.09
703.922	0.08
704.245	0.09
704.567	0.09
704.89	0.09
705.212	0.09
705.535	0.09
705.857	0.09
706.179	0.08
706.502	0.08
706.824	0.08
707.146	0.08
707.468	0.09
707.79	0.09
708.112	0.09
708.434	0.08
708.756	0.08
709.078	0.09
709.399	0.08
709.721	0.08
710.043	0.09
710.364	0.08
710.686	0.09
711.007	0.08
711.329	0.09
711.65	0.09
711.972	0.08
712.293	0.09
712.614	0.09
712.935	0.09
713.256	0.09
713.577	0.09
713.898	0.08
714.219	0.09
714.54	0.08
714.861	0.07
715.182	0.08
715.503	0.07
715.823	0.08
716.144	0.07
716.464	0.08
716.785	0.08
717.105	0.07
717.426	0.08
717.746	0.07
718.066	0.07
718.387	0.07
718.707	0.06
719.027	0.07
719.347	0.06
719.667	0.07
719.987	0.07
720.307	0.07
720.627	0.07
720.947	0.07
721.266	0.06
721.586	0.06
721.906	0.06
722.225	0.06
722.545	0.06
722.864	0.06
723.184	0.06
723.503	0.06
723.823	0.06
724.142	0.06
724.461	0.06
724.78	0.06
725.099	0.06
725.418	0.06
725.737	0.07
726.056	0.06
726.375	0.07
726.694	0.07
727.013	0.06
727.331	0.05
727.65	0.06
727.969	0.07
728.287	0.06
728.606	0.06
728.924	0.05
729.242	0.06
729.561	0.06
729.879	0.06
730.197	0.07
730.515	0.06
730.834	0.05
731.152	0.07
731.47	0.06
731.788	0.05
732.105	0.06
732.423	0.05
732.741	0.05
733.059	0.05
733.376	0.06
733.694	0.05
734.012	0.05
734.329	0.07
734.647	0.06
734.964	0.05
735.281	0.06
735.599	0.07
735.916	0.06
736.233	0.06
736.55	0.06
736.867	0.06
737.184	0.06
737.501	0.06
737.818	0.06
738.135	0.07
738.452	0.07
738.768	0.06
739.085	0.07
739.402	0.05
739.718	0.07
740.035	0.07
740.351	0.07
740.668	0.07
740.984	0.06
741.3	0.06
741.617	0.07
741.933	0.06
742.249	0.07
742.565	0.07
742.881	0.07
743.197	0.06
743.513	0.06
743.829	0.06
744.144	0.06
744.46	0.06
744.776	0.07
745.091	0.06
745.407	0.06
745.722	0.06
746.038	0.06
746.353	0.05
746.669	0.07
746.984	0.05
747.299	0.07
747.614	0.07
747.93	0.07
748.245	0.06
748.56	0.06
748.875	0.06
749.189	0.06
749.504	0.06
749.819	0.07
750.134	0.06
750.448	0.06
750.763	0.06
751.078	0.05
751.392	0.06
751.707	0.07
752.021	0.07
752.335	0.07
752.65	0.07
752.964	0.05
753.278	0.06
753.592	0.06
753.906	0.06
754.22	0.06
754.534	0.07
754.848	0.06
755.162	0.06
755.476	0.07
755.789	0.06
756.103	0.05
756.417	0.06
756.73	0.06
757.044	0.07
757.357	0.06
757.671	0.06
757.984	0.06
758.297	0.06
758.61	0.06
758.924	0.07
759.237	0.06
759.55	0.06
759.863	0.05
760.176	0.06
760.488	0.06
760.801	0.06
761.114	0.06
761.427	0.05
761.739	0.06
762.052	0.05
762.365	0.06
762.677	0.06
762.99	0.04
763.302	0.05
763.614	0.06
763.926	0.06
764.239	0.05
764.551	0.05
764.863	0.06
765.175	0.06
765.487	0.06
765.799	0.05
766.111	0.04
766.423	0.05
766.734	0.05
767.046	0.05
767.358	0.05
767.669	0.05
767.981	0.06
768.292	0.05
768.604	0.05
768.915	0.05
769.226	0.05
769.537	0.04
769.849	0.05
770.16	0.05
770.471	0.04
770.782	0.04
771.093	0.05
771.404	0.04
771.715	0.04
772.025	0.04
772.336	0.04
772.647	0.04
772.957	0.05
773.268	0.04
773.578	0.04
773.889	0.05
774.199	0.05
774.51	0.04
774.82	0.05
775.13	0.05
775.44	0.05
775.75	0.05
776.06	0.05
776.37	0.04
776.68	0.05
776.99	0.04
777.3	0.04
777.61	0.05
777.92	0.05
778.229	0.04
778.539	0.05
778.848	0.05
779.158	0.05
779.467	0.04
779.777	0.04
780.086	0.05
780.395	0.04
780.704	0.05
781.013	0.04
781.323	0.04
781.632	0.05
781.941	0.05
782.249	0.05
782.558	0.04
782.867	0.05
783.176	0.04
783.485	0.04
783.793	0.05
784.102	0.04
784.41	0.05
784.719	0.04
785.027	0.04
785.335	0.04
785.644	0.04
785.952	0.04
786.26	0.04
786.568	0.04
786.876	0.04
787.184	0.04
787.492	0.04
787.8	0.04
788.108	0.04
788.416	0.03
788.723	0.04
789.031	0.04
789.338	0.04
789.646	0.03
789.953	0.04
790.261	0.05
790.568	0.05
790.876	0.04
791.183	0.05
791.49	0.04
791.797	0.05
792.104	0.03
792.411	0.04
792.718	0.03
793.025	0.04
793.332	0.04
793.639	0.05
793.945	0.05
794.252	0.05
794.559	0.04
794.865	0.05
795.172	0.05
795.478	0.05
795.784	0.05
796.091	0.05
796.397	0.05
796.703	0.05
797.009	0.05
797.315	0.05
797.622	0.05
797.927	0.05
798.233	0.04
798.539	0.04
798.845	0.05
799.151	0.05
799.456	0.04
799.762	0.04
800.068	0.05
800.373	0.05
800.679	0.04
800.984	0.04
801.289	0.04
801.595	0.05
801.9	0.04
802.205	0.04
802.51	0.04
802.815	0.04
803.12	0.04
803.425	0.03
803.73	0.04
804.035	0.04
804.339	0.03
804.644	0.04
804.949	0.04
805.253	0.04
805.558	0.04
805.862	0.04
806.167	0.04
806.471	0.04
806.775	0.04
807.08	0.04
807.384	0.04
807.688	0.04
807.992	0.04
808.296	0.04
808.6	0.04
808.904	0.05
809.207	0.05
809.511	0.05
809.815	0.05
810.119	0.04
810.422	0.05
810.726	0.05
811.029	0.06
811.332	0.05
811.636	0.06
811.939	0.04
812.242	0.05
812.546	0.05
812.849	0.05
813.152	0.05
813.455	0.04
813.758	0.05
814.06	0.05
814.363	0.05
814.666	0.05
814.969	0.05
815.271	0.05
815.574	0.04
815.877	0.04
816.179	0.04
816.481	0.04
816.784	0.05
817.086	0.04
817.388	0.03
817.69	0.03
817.993	0.03
818.295	0.03
818.597	0.03
818.899	0.03
819.2	0.02
819.502	0.02
819.804	0.03
820.106	0.03
820.407	0.02
820.709	0.03
821.01	0.03
821.312	0.04
821.613	0.03
821.915	0.02
822.216	0.02
822.517	0.02
822.818	0.02
823.119	0.03
823.42	0.03
823.721	0.03
824.022	0.02
824.323	0.03
824.624	0.03
824.925	0.04
825.226	0.04
825.526	0.03
825.827	0.03
826.127	0.04
826.428	0.04
826.728	0.03
827.028	0.03
827.329	0.03
827.629	0.02
827.929	0.03
828.229	0.03
828.529	0.04
828.829	0.03
829.129	0.03
829.429	0.03
829.729	0.03
830.029	0.03
830.328	0.03
830.628	0.02
830.927	0.02
831.227	0.03
831.526	0.03
831.826	0.03
832.125	0.03
832.424	0.02
832.724	0.02
833.023	0.02
833.322	0.03
833.621	0.02
833.92	0.01
834.219	0.02
834.518	0.02
834.816	0.01
835.115	0.02
835.414	0.02
835.712	0.02
836.011	0.02
836.309	0.02
836.608	0.02
836.906	0.01
837.205	0
837.503	0.01
837.801	0
838.099	-0
838.397	-0
838.695	-0
838.993	-0.01
839.291	-0.01
839.589	-0.01
839.887	-0.01
840.184	-0.02
840.482	-0.02
840.78	-0.01
841.077	-0.02
841.375	-0.02
841.672	-0.02
841.969	-0.03
842.267	-0.03
842.564	-0.04
842.861	-0.03
843.158	-0.03
843.455	-0.05
843.752	-0.04
844.049	-0.03
844.346	-0.04
844.643	-0.04
844.94	-0.05
845.236	-0.03
845.533	-0.04
845.83	-0.04
846.126	-0.04
846.423	-0.05
846.719	-0.05
847.015	-0.05
847.312	-0.05
847.608	-0.05
847.904	-0.06
848.2	-0.05
848.496	-0.06
848.792	-0.05
849.088	-0.05
849.384	-0.06
849.68	-0.07
849.975	-0.06
850.271	-0.06
850.567	-0.06
850.862	-0.06
851.158	-0.06
851.453	-0.06
851.748	-0.08
852.044	-0.06
852.339	-0.06
852.634	-0.09
852.929	-0.06
853.224	-0.07
853.519	-0.08
853.814	-0.07
854.109	-0.08
854.404	-0.09
854.699	-0.09
854.994	-0.07
855.288	-0.08
855.583	-0.07
855.877	-0.09
856.172	-0.08
856.466	-0.09
856.76	-0.09
857.055	-0.09
857.349	-0.1
857.643	-0.1
857.937	-0.11
858.231	-0.1
858.525	-0.1
858.819	-0.1
859.113	-0.11
859.407	-0.11
859.701	-0.12
859.994	-0.11
860.288	-0.11
860.581	-0.11
860.875	-0.11
861.168	-0.12
861.462	-0.12
861.755	-0.11
862.048	-0.12
862.341	-0.12
862.634	-0.12
862.928	-0.12
863.221	-0.12
863.513	-0.13
863.806	-0.12
864.099	-0.13
864.392	-0.13
864.685	-0.12
864.977	-0.13
865.27	-0.13
865.562	-0.12
865.855	-0.12
866.147	-0.13
866.44	-0.12
866.732	-0.13
867.024	-0.14
867.316	-0.14
867.608	-0.15
867.9	-0.13
868.192	-0.14
868.484	-0.14
868.776	-0.15
869.068	-0.14
869.359	-0.14
869.651	-0.14
869.943	-0.15
870.234	-0.15
870.526	-0.15
870.817	-0.16
871.108	-0.15
871.4	-0.15
871.691	-0.16
871.982	-0.17
872.273	-0.17
872.564	-0.16
872.855	-0.17
873.146	-0.16
873.437	-0.16
873.728	-0.17
874.019	-0.17
874.309	-0.17
874.6	-0.18
874.89	-0.16
875.181	-0.18
875.471	-0.16
875.762	-0.18
876.052	-0.17
876.342	-0.16
876.632	-0.16
876.922	-0.18
877.213	-0.17
877.503	-0.18
877.792	-0.17
878.082	-0.19
878.372	-0.16
878.662	-0.2
878.952	-0.18
879.241	-0.18
879.531	-0.19
879.82	-0.18
880.11	-0.2
880.399	-0.19
880.688	-0.17
880.978	-0.17
881.267	-0.17
