Data from 12-12-AQDScycling_Absorbance__268__00268.txt Node

Date: Tue Dec 12 12:05:01 EST 2023
User: kyuminlee
Spectrometer: FLMS00943
Trigger mode: 0
Integration Time (sec): 1.000000E-1
Scans to average: 1
Electric dark correction enabled: true
Nonlinearity correction enabled: false
Boxcar width: 0
XAxis mode: Wavelengths
Number of Pixels in Spectrum: 2048
>>>>>Begin Spectral Data<<<<<
179.651	-0
180.037	-0
180.424	-0
180.81	-0.26
181.197	0.38
181.583	-0
181.97	-0
182.356	-0
182.743	-0
183.129	0.45
183.515	-0
183.901	-2.41
184.288	0.42
184.674	-0
185.06	-0.19
185.446	-0
185.832	-0
186.218	-0
186.604	1.07
186.99	-0
187.376	-0
187.762	0
188.148	0.34
188.534	-0
188.92	0.08
189.305	0.08
189.691	0.25
190.077	0.12
190.463	0.17
190.848	0.04
191.234	0.04
191.619	0.01
192.005	-0.01
192.391	0.04
192.776	0.14
193.161	0.11
193.547	0.13
193.932	0.11
194.318	0.04
194.703	0.14
195.088	0.13
195.473	0.22
195.859	0.16
196.244	0.15
196.629	0.02
197.014	0.2
197.399	0.12
197.784	0.06
198.169	0.19
198.554	0.19
198.939	0.14
199.324	0.07
199.709	0.04
200.094	0.1
200.478	0.1
200.863	0.28
201.248	0.2
201.633	0.1
202.017	0.21
202.402	0.19
202.787	0.18
203.171	0.06
203.556	0.11
203.94	0.14
204.325	0.28
204.709	0.27
205.093	0.04
205.478	0.11
205.862	0.12
206.246	0.24
206.631	0.12
207.015	0.07
207.399	0.13
207.783	0.22
208.167	0.21
208.551	0.26
208.935	0.16
209.319	0.12
209.703	0.26
210.087	0.22
210.471	0.2
210.855	0.19
211.239	0.12
211.623	0.26
212.007	0.43
212.39	0.37
212.774	0.11
213.158	0.12
213.541	0.22
213.925	0.16
214.309	0.32
214.692	0.26
215.076	0.21
215.459	0.16
215.842	0.22
216.226	0.19
216.609	0.3
216.993	0.13
217.376	0.64
217.759	0.21
218.142	0.4
218.525	0.51
218.909	0.32
219.292	0.28
219.675	0.44
220.058	0.45
220.441	0.38
220.824	0.53
221.207	0.6
221.59	0.55
221.973	0.51
222.355	0.62
222.738	0.83
223.121	0.55
223.504	0.57
223.886	0.72
224.269	0.79
224.652	0.61
225.034	0.59
225.417	0.81
225.799	0.8
226.182	0.89
226.564	0.85
226.947	0.81
227.329	0.83
227.711	1.04
228.094	0.97
228.476	0.97
228.858	0.74
229.24	0.92
229.623	0.91
230.005	0.88
230.387	0.82
230.769	0.86
231.151	0.94
231.533	1.05
231.915	0.85
232.297	1.01
232.679	0.93
233.061	1.13
233.442	1.09
233.824	1
234.206	1.12
234.588	1.25
234.969	0.95
235.351	1.01
235.733	1.09
236.114	1.27
236.496	1.12
236.877	1.09
237.259	1.03
237.64	1.12
238.022	1.14
238.403	1.08
238.784	1.05
239.165	0.94
239.547	1.15
239.928	1.05
240.309	1.05
240.69	1.08
241.071	0.99
241.452	1.04
241.834	1.11
242.215	1.06
242.595	1.1
242.976	1.11
243.357	1.23
243.738	1.03
244.119	1.22
244.5	1.2
244.881	1.19
245.261	1.28
245.642	1.31
246.023	1.25
246.403	1.21
246.784	1.28
247.164	1.21
247.545	1.25
247.925	1.32
248.306	1.25
248.686	1.49
249.067	1.19
249.447	1.47
249.827	1.38
250.207	1.39
250.588	1.23
250.968	1.35
251.348	1.35
251.728	1.51
252.108	1.31
252.488	1.37
252.868	1.47
253.248	1.38
253.628	1.42
254.008	1.56
254.388	1.21
254.768	1.29
255.147	1.31
255.527	1.42
255.907	1.37
256.287	1.32
256.666	1.38
257.046	1.4
257.425	1.52
257.805	1.29
258.184	1.3
258.564	1.37
258.943	1.29
259.323	1.4
259.702	1.52
260.081	1.47
260.461	1.52
260.84	1.6
261.219	1.69
261.598	1.49
261.977	1.56
262.356	1.55
262.736	1.54
263.115	1.62
263.494	1.38
263.873	1.42
264.251	1.44
264.63	1.56
265.009	1.44
265.388	1.58
265.767	1.36
266.145	1.36
266.524	1.4
266.903	1.43
267.281	1.41
267.66	1.54
268.039	1.56
268.417	1.42
268.796	1.37
269.174	1.39
269.552	1.33
269.931	1.51
270.309	1.36
270.687	1.63
271.066	1.65
271.444	1.35
271.822	1.59
272.2	1.54
272.578	1.35
272.956	1.62
273.334	1.32
273.712	1.48
274.09	1.43
274.468	1.49
274.846	1.36
275.224	1.28
275.602	1.37
275.98	1.46
276.357	1.45
276.735	1.38
277.113	1.35
277.49	1.44
277.868	1.43
278.246	1.37
278.623	1.26
279.001	1.49
279.378	1.45
279.756	1.43
280.133	1.42
280.51	1.44
280.888	1.45
281.265	1.3
281.642	1.39
282.019	1.61
282.396	1.54
282.773	1.35
283.151	1.57
283.528	1.5
283.905	1.44
284.282	1.83
284.659	1.74
285.035	1.34
285.412	1.44
285.789	1.5
286.166	1.35
286.543	1.49
286.919	1.55
287.296	1.4
287.673	1.55
288.049	1.6
288.426	1.59
288.802	1.5
289.179	1.54
289.555	1.58
289.932	1.47
290.308	1.34
290.684	1.36
291.061	1.39
291.437	1.55
291.813	1.35
292.189	1.26
292.565	1.35
292.942	1.29
293.318	1.44
293.694	1.53
294.07	1.32
294.446	1.45
294.822	1.51
295.197	1.48
295.573	1.49
295.949	1.49
296.325	1.58
296.701	1.62
297.076	1.59
297.452	1.55
297.828	1.41
298.203	1.58
298.579	1.4
298.954	1.38
299.33	1.44
299.705	1.48
300.081	1.59
300.456	1.51
300.831	1.5
301.206	1.45
301.582	1.5
301.957	1.42
302.332	1.56
302.707	1.45
303.082	1.49
303.457	1.61
303.832	1.49
304.207	1.49
304.582	1.41
304.957	1.5
305.332	1.43
305.707	1.39
306.082	1.51
306.456	1.67
306.831	1.41
307.206	1.5
307.58	1.53
307.955	1.43
308.33	1.38
308.704	1.43
309.079	1.42
309.453	1.7
309.828	1.62
310.202	1.39
310.576	1.39
310.951	1.51
311.325	1.4
311.699	1.38
312.073	1.31
312.447	1.42
312.821	1.32
313.196	1.44
313.57	1.35
313.944	1.53
314.317	1.29
314.691	1.44
315.065	1.61
315.439	1.54
315.813	1.51
316.187	1.44
316.56	1.64
316.934	1.51
317.308	1.39
317.681	1.5
318.055	1.37
318.428	1.47
318.802	1.67
319.175	1.45
319.549	1.5
319.922	1.3
320.295	1.39
320.669	1.61
321.042	1.42
321.415	1.7
321.788	1.59
322.162	1.47
322.535	1.7
322.908	1.4
323.281	1.5
323.654	1.65
324.027	1.5
324.4	1.58
324.773	1.56
325.145	1.76
325.518	1.39
325.891	1.45
326.264	1.87
326.636	1.37
327.009	1.47
327.382	1.45
327.754	1.49
328.127	1.45
328.499	1.54
328.872	1.5
329.244	1.73
329.616	1.45
329.989	1.42
330.361	1.58
330.733	1.49
331.106	1.37
331.478	1.63
331.85	1.42
332.222	1.41
332.594	1.61
332.966	1.48
333.338	1.59
333.71	1.67
334.082	1.56
334.454	1.41
334.826	1.45
335.197	1.52
335.569	1.46
335.941	1.55
336.312	1.47
336.684	1.39
337.056	1.46
337.427	1.51
337.799	1.58
338.17	1.57
338.542	1.47
338.913	1.65
339.284	1.6
339.656	1.45
340.027	1.52
340.398	1.51
340.769	1.5
341.141	1.54
341.512	1.46
341.883	1.58
342.254	1.44
342.625	1.42
342.996	1.52
343.367	1.48
343.738	1.47
344.108	1.38
344.479	1.65
344.85	1.38
345.221	1.58
345.591	1.35
345.962	1.53
346.333	1.35
346.703	1.43
347.074	1.33
347.444	1.41
347.815	1.31
348.185	1.34
348.556	1.24
348.926	1.34
349.296	1.39
349.666	1.38
350.037	1.26
350.407	1.29
350.777	1.4
351.147	1.4
351.517	1.33
351.887	1.35
352.257	1.41
352.627	1.34
352.997	1.28
353.367	1.4
353.737	1.39
354.106	1.38
354.476	1.43
354.846	1.36
355.216	1.39
355.585	1.46
355.955	1.38
356.324	1.27
356.694	1.4
357.063	1.33
357.433	1.3
357.802	1.27
358.171	1.35
358.541	1.29
358.91	1.37
359.279	1.32
359.648	1.26
360.017	1.31
360.387	1.32
360.756	1.18
361.125	1.28
361.494	1.37
361.863	1.27
362.231	1.28
362.6	1.24
362.969	1.28
363.338	1.18
363.707	1.27
364.075	1.25
364.444	1.23
364.813	1.19
365.181	1.23
365.55	1.21
365.918	1.29
366.287	1.22
366.655	1.24
367.024	1.18
367.392	1.22
367.76	1.18
368.128	1.13
368.497	1.19
368.865	1.13
369.233	1.27
369.601	1.18
369.969	1.26
370.337	1.31
370.705	1.22
371.073	1.24
371.441	1.18
371.809	1.14
372.177	1.19
372.544	1.19
372.912	1.31
373.28	1.21
373.647	1.25
374.015	1.32
374.383	1.29
374.75	1.27
375.118	1.24
375.485	1.23
375.853	1.26
376.22	1.19
376.587	1.23
376.955	1.29
377.322	1.33
377.689	1.25
378.056	1.13
378.423	1.22
378.79	1.24
379.157	1.19
379.524	1.22
379.891	1.18
380.258	1.36
380.625	1.26
380.992	1.22
381.359	1.26
381.726	1.31
382.092	1.2
382.459	1.22
382.826	1.27
383.192	1.26
383.559	1.3
383.925	1.32
384.292	1.23
384.658	1.37
385.025	1.27
385.391	1.39
385.757	1.35
386.123	1.41
386.49	1.35
386.856	1.33
387.222	1.43
387.588	1.35
387.954	1.43
388.32	1.53
388.686	1.35
389.052	1.38
389.418	1.28
389.784	1.34
390.15	1.39
390.515	1.32
390.881	1.44
391.247	1.31
391.613	1.43
391.978	1.31
392.344	1.42
392.709	1.46
393.075	1.45
393.44	1.38
393.806	1.4
394.171	1.31
394.536	1.3
394.902	1.43
395.267	1.35
395.632	1.35
395.997	1.35
396.362	1.31
396.727	1.48
397.092	1.36
397.457	1.53
397.822	1.36
398.187	1.35
398.552	1.3
398.917	1.38
399.282	1.22
399.646	1.25
400.011	1.33
400.376	1.26
400.74	1.24
401.105	1.25
401.47	1.35
401.834	1.28
402.199	1.32
402.563	1.26
402.927	1.21
403.292	1.27
403.656	1.25
404.02	1.26
404.384	1.31
404.749	1.22
405.113	1.24
405.477	1.21
405.841	1.19
406.205	1.17
406.569	1.13
406.933	1.23
407.296	1.17
407.66	1.21
408.024	1.17
408.388	1.18
408.752	1.16
409.115	1.16
409.479	1.11
409.842	1.13
410.206	1.13
410.569	1.12
410.933	1.14
411.296	1.06
411.66	1.13
412.023	1.02
412.386	1.1
412.749	1.07
413.113	1.03
413.476	1.06
413.839	1.06
414.202	1.05
414.565	1.04
414.928	1.06
415.291	0.99
415.654	1.02
416.017	1.05
416.38	0.99
416.742	0.97
417.105	0.98
417.468	1.03
417.83	0.96
418.193	1.06
418.556	0.99
418.918	1
419.281	0.99
419.643	1.03
420.005	1.01
420.368	1.02
420.73	0.95
421.092	1.03
421.455	1.01
421.817	0.94
422.179	0.94
422.541	0.98
422.903	1
423.265	0.98
423.627	0.95
423.989	0.94
424.351	0.96
424.713	0.95
425.075	0.94
425.436	0.94
425.798	0.93
426.16	0.95
426.521	0.95
426.883	0.96
427.245	0.94
427.606	0.92
427.967	0.92
428.329	0.9
428.69	0.97
429.052	0.89
429.413	0.95
429.774	0.95
430.135	0.91
430.497	0.89
430.858	0.89
431.219	0.9
431.58	0.92
431.941	0.89
432.302	0.88
432.663	0.9
433.024	0.9
433.384	0.9
433.745	0.9
434.106	0.9
434.467	0.86
434.827	0.9
435.188	0.89
435.548	0.9
435.909	0.87
436.269	0.87
436.63	0.85
436.99	0.87
437.351	0.82
437.711	0.84
438.071	0.83
438.431	0.84
438.792	0.82
439.152	0.83
439.512	0.83
439.872	0.83
440.232	0.84
440.592	0.84
440.952	0.82
441.312	0.79
441.671	0.81
442.031	0.8
442.391	0.8
442.751	0.79
443.11	0.78
443.47	0.78
443.83	0.77
444.189	0.79
444.549	0.75
444.908	0.76
445.267	0.75
445.627	0.77
445.986	0.74
446.345	0.75
446.705	0.74
447.064	0.74
447.423	0.73
447.782	0.73
448.141	0.73
448.5	0.69
448.859	0.71
449.218	0.72
449.577	0.71
449.936	0.72
450.295	0.73
450.653	0.71
451.012	0.7
451.371	0.69
451.729	0.69
452.088	0.68
452.447	0.67
452.805	0.67
453.163	0.68
453.522	0.67
453.88	0.65
454.239	0.66
454.597	0.64
454.955	0.64
455.313	0.64
455.671	0.64
456.029	0.63
456.388	0.62
456.746	0.62
457.104	0.6
457.461	0.6
457.819	0.6
458.177	0.59
458.535	0.56
458.893	0.57
459.25	0.57
459.608	0.56
459.966	0.55
460.323	0.55
460.681	0.53
461.038	0.55
461.396	0.53
461.753	0.53
462.111	0.52
462.468	0.51
462.825	0.5
463.182	0.51
463.54	0.49
463.897	0.5
464.254	0.49
464.611	0.49
464.968	0.49
465.325	0.48
465.682	0.48
466.039	0.47
466.395	0.46
466.752	0.45
467.109	0.45
467.466	0.44
467.822	0.45
468.179	0.43
468.535	0.43
468.892	0.42
469.248	0.41
469.605	0.41
469.961	0.41
470.318	0.42
470.674	0.41
471.03	0.4
471.386	0.4
471.743	0.39
472.099	0.39
472.455	0.38
472.811	0.38
473.167	0.38
473.523	0.35
473.879	0.35
474.235	0.35
474.59	0.35
474.946	0.34
475.302	0.35
475.657	0.34
476.013	0.33
476.369	0.32
476.724	0.33
477.08	0.33
477.435	0.32
477.791	0.32
478.146	0.32
478.501	0.31
478.857	0.31
479.212	0.3
479.567	0.3
479.922	0.29
480.277	0.29
480.632	0.28
480.987	0.28
481.342	0.28
481.697	0.27
482.052	0.28
482.407	0.27
482.762	0.27
483.116	0.25
483.471	0.26
483.826	0.25
484.18	0.25
484.535	0.25
484.89	0.25
485.244	0.24
485.598	0.24
485.953	0.24
486.307	0.23
486.661	0.24
487.016	0.23
487.37	0.23
487.724	0.22
488.078	0.23
488.432	0.22
488.786	0.22
489.14	0.22
489.494	0.22
489.848	0.22
490.202	0.21
490.556	0.21
490.91	0.21
491.263	0.2
491.617	0.21
491.971	0.2
492.324	0.2
492.678	0.2
493.031	0.21
493.385	0.2
493.738	0.2
494.091	0.2
494.445	0.19
494.798	0.19
495.151	0.19
495.504	0.19
495.857	0.19
496.21	0.19
496.564	0.18
496.916	0.19
497.269	0.18
497.622	0.18
497.975	0.18
498.328	0.19
498.681	0.19
499.033	0.19
499.386	0.19
499.739	0.18
500.091	0.17
500.444	0.18
500.796	0.17
501.149	0.17
501.501	0.17
501.854	0.16
502.206	0.17
502.558	0.17
502.91	0.17
503.263	0.17
503.615	0.17
503.967	0.16
504.319	0.17
504.671	0.16
505.023	0.16
505.375	0.16
505.726	0.16
506.078	0.16
506.43	0.16
506.782	0.16
507.133	0.16
507.485	0.16
507.837	0.17
508.188	0.17
508.54	0.17
508.891	0.17
509.243	0.16
509.594	0.16
509.945	0.15
510.296	0.15
510.648	0.16
510.999	0.16
511.35	0.16
511.701	0.16
512.052	0.15
512.403	0.16
512.754	0.16
513.105	0.15
513.456	0.15
513.807	0.15
514.157	0.16
514.508	0.16
514.859	0.15
515.209	0.15
515.56	0.15
515.91	0.14
516.261	0.15
516.611	0.14
516.962	0.15
517.312	0.15
517.662	0.15
518.013	0.15
518.363	0.15
518.713	0.15
519.063	0.15
519.413	0.15
519.763	0.14
520.113	0.15
520.463	0.16
520.813	0.15
521.163	0.16
521.512	0.14
521.862	0.15
522.212	0.16
522.562	0.16
522.911	0.15
523.261	0.15
523.61	0.15
523.96	0.15
524.309	0.15
524.658	0.16
525.008	0.15
525.357	0.15
525.706	0.16
526.056	0.15
526.405	0.15
526.754	0.15
527.103	0.15
527.452	0.14
527.801	0.15
528.15	0.15
528.499	0.15
528.847	0.15
529.196	0.16
529.545	0.16
529.893	0.16
530.242	0.16
530.591	0.16
530.939	0.16
531.288	0.16
531.636	0.17
531.985	0.16
532.333	0.16
532.681	0.16
533.029	0.17
533.378	0.17
533.726	0.16
534.074	0.17
534.422	0.16
534.77	0.16
535.118	0.16
535.466	0.16
535.814	0.16
536.162	0.16
536.509	0.17
536.857	0.16
537.205	0.17
537.552	0.16
537.9	0.16
538.248	0.15
538.595	0.17
538.943	0.16
539.29	0.16
539.637	0.16
539.985	0.17
540.332	0.16
540.679	0.16
541.026	0.15
541.373	0.16
541.721	0.15
542.068	0.15
542.415	0.16
542.762	0.16
543.108	0.15
543.455	0.15
543.802	0.15
544.149	0.15
544.496	0.15
544.842	0.15
545.189	0.14
545.535	0.15
545.882	0.16
546.228	0.15
546.575	0.15
546.921	0.15
547.267	0.15
547.614	0.15
547.96	0.15
548.306	0.15
548.652	0.15
548.998	0.16
549.344	0.15
549.69	0.16
550.036	0.16
550.382	0.16
550.728	0.16
551.074	0.16
551.42	0.15
551.765	0.16
552.111	0.16
552.457	0.16
552.802	0.17
553.148	0.16
553.493	0.15
553.839	0.17
554.184	0.17
554.529	0.15
554.875	0.17
555.22	0.16
555.565	0.17
555.91	0.17
556.255	0.17
556.6	0.16
556.945	0.16
557.29	0.16
557.635	0.17
557.98	0.17
558.325	0.17
558.67	0.15
559.014	0.16
559.359	0.17
559.704	0.17
560.048	0.15
560.393	0.16
560.737	0.15
561.082	0.16
561.426	0.15
561.77	0.17
562.115	0.15
562.459	0.15
562.803	0.15
563.147	0.15
563.491	0.15
563.835	0.16
564.179	0.16
564.523	0.16
564.867	0.15
565.211	0.16
565.555	0.16
565.899	0.17
566.242	0.16
566.586	0.15
566.93	0.16
567.273	0.17
567.617	0.16
567.96	0.16
568.304	0.16
568.647	0.16
568.99	0.16
569.334	0.17
569.677	0.15
570.02	0.16
570.363	0.16
570.706	0.17
571.049	0.16
571.392	0.16
571.735	0.15
572.078	0.16
572.421	0.16
572.764	0.16
573.106	0.16
573.449	0.15
573.792	0.16
574.134	0.16
574.477	0.16
574.819	0.16
575.162	0.16
575.504	0.16
575.847	0.16
576.189	0.16
576.531	0.16
576.873	0.16
577.215	0.17
577.558	0.17
577.9	0.16
578.242	0.16
578.584	0.17
578.926	0.17
579.267	0.16
579.609	0.16
579.951	0.16
580.293	0.16
580.634	0.17
580.976	0.16
581.318	0.16
581.659	0.15
582.001	0.16
582.342	0.16
582.683	0.17
583.025	0.16
583.366	0.15
583.707	0.16
584.049	0.16
584.39	0.16
584.731	0.16
585.072	0.15
585.413	0.16
585.754	0.15
586.095	0.16
586.435	0.16
586.776	0.16
587.117	0.16
587.458	0.15
587.798	0.16
588.139	0.16
588.48	0.15
588.82	0.16
589.161	0.16
589.501	0.16
589.841	0.16
590.182	0.15
590.522	0.16
590.862	0.16
591.202	0.15
591.542	0.15
591.882	0.16
592.222	0.16
592.562	0.16
592.902	0.16
593.242	0.16
593.582	0.16
593.922	0.16
594.261	0.15
594.601	0.16
594.941	0.16
595.28	0.16
595.62	0.15
595.959	0.15
596.299	0.16
596.638	0.15
596.977	0.16
597.317	0.16
597.656	0.16
597.995	0.15
598.334	0.17
598.673	0.16
599.012	0.15
599.351	0.16
599.69	0.15
600.029	0.16
600.368	0.16
600.707	0.16
601.046	0.15
601.384	0.16
601.723	0.15
602.061	0.15
602.4	0.15
602.738	0.16
603.077	0.16
603.415	0.15
603.754	0.16
604.092	0.16
604.43	0.15
604.768	0.16
605.107	0.16
605.445	0.15
605.783	0.15
606.121	0.16
606.459	0.15
606.796	0.15
607.134	0.15
607.472	0.15
607.81	0.15
608.148	0.15
608.485	0.16
608.823	0.15
609.16	0.15
609.498	0.16
609.835	0.15
610.173	0.16
610.51	0.16
610.847	0.16
611.185	0.16
611.522	0.16
611.859	0.16
612.196	0.16
612.533	0.16
612.87	0.16
613.207	0.16
613.544	0.15
613.881	0.17
614.217	0.16
614.554	0.16
614.891	0.16
615.228	0.16
615.564	0.16
615.901	0.16
616.237	0.16
616.574	0.16
616.91	0.17
617.246	0.16
617.583	0.16
617.919	0.17
618.255	0.16
618.591	0.17
618.927	0.16
619.263	0.17
619.599	0.17
619.935	0.17
620.271	0.17
620.607	0.16
620.943	0.16
621.279	0.17
621.614	0.16
621.95	0.16
622.286	0.16
622.621	0.15
622.957	0.15
623.292	0.15
623.627	0.15
623.963	0.15
624.298	0.15
624.633	0.14
624.968	0.15
625.304	0.15
625.639	0.15
625.974	0.15
626.309	0.14
626.644	0.14
626.979	0.14
627.313	0.15
627.648	0.15
627.983	0.14
628.318	0.14
628.652	0.14
628.987	0.15
629.321	0.14
629.656	0.14
629.99	0.14
630.325	0.14
630.659	0.15
630.993	0.14
631.327	0.14
631.662	0.13
631.996	0.14
632.33	0.14
632.664	0.14
632.998	0.14
633.332	0.14
633.666	0.13
633.999	0.15
634.333	0.14
634.667	0.14
635.001	0.13
635.334	0.14
635.668	0.13
636.001	0.14
636.335	0.14
636.668	0.14
637.001	0.13
637.335	0.14
637.668	0.13
638.001	0.13
638.334	0.13
638.668	0.13
639.001	0.13
639.334	0.13
639.667	0.13
639.999	0.13
640.332	0.12
640.665	0.12
640.998	0.13
641.331	0.13
641.663	0.12
641.996	0.13
642.328	0.13
642.661	0.13
642.993	0.13
643.326	0.13
643.658	0.12
643.99	0.12
644.323	0.13
644.655	0.12
644.987	0.13
645.319	0.13
645.651	0.13
645.983	0.13
646.315	0.12
646.647	0.13
646.979	0.15
647.31	0.14
647.642	0.13
647.974	0.13
648.305	0.14
648.637	0.14
648.968	0.14
649.3	0.14
649.631	0.14
649.963	0.13
650.294	0.14
650.625	0.13
650.957	0.14
651.288	0.14
651.619	0.14
651.95	0.14
652.281	0.14
652.612	0.14
652.943	0.14
653.274	0.14
653.604	0.13
653.935	0.13
654.266	0.13
654.596	0.13
654.927	0.13
655.258	0.13
655.588	0.14
655.918	0.13
656.249	0.12
656.579	0.13
656.909	0.13
657.24	0.13
657.57	0.14
657.9	0.14
658.23	0.14
658.56	0.14
658.89	0.14
659.22	0.13
659.55	0.14
659.88	0.14
660.209	0.14
660.539	0.14
660.869	0.14
661.198	0.14
661.528	0.14
661.857	0.14
662.187	0.14
662.516	0.14
662.846	0.13
663.175	0.14
663.504	0.13
663.833	0.14
664.163	0.14
664.492	0.13
664.821	0.13
665.15	0.13
665.479	0.13
665.807	0.12
666.136	0.13
666.465	0.12
666.794	0.13
667.122	0.13
667.451	0.12
667.78	0.12
668.108	0.13
668.437	0.12
668.765	0.12
669.093	0.13
669.422	0.12
669.75	0.13
670.078	0.12
670.406	0.13
670.734	0.13
671.062	0.12
671.39	0.13
671.718	0.13
672.046	0.12
672.374	0.12
672.702	0.13
673.029	0.12
673.357	0.12
673.685	0.13
674.012	0.12
674.34	0.13
674.667	0.13
674.995	0.13
675.322	0.13
675.649	0.12
675.977	0.13
676.304	0.12
676.631	0.12
676.958	0.12
677.285	0.12
677.612	0.12
677.939	0.12
678.266	0.13
678.593	0.12
678.92	0.12
679.246	0.11
679.573	0.12
679.9	0.11
680.226	0.11
680.553	0.11
680.879	0.11
681.206	0.11
681.532	0.11
681.858	0.11
682.184	0.11
682.511	0.11
682.837	0.11
683.163	0.11
683.489	0.11
683.815	0.11
684.141	0.11
684.467	0.11
684.793	0.1
685.118	0.1
685.444	0.11
685.77	0.11
686.095	0.11
686.421	0.11
686.746	0.11
687.072	0.11
687.397	0.11
687.723	0.12
688.048	0.12
688.373	0.11
688.698	0.12
689.023	0.11
689.349	0.12
689.674	0.11
689.999	0.11
690.323	0.11
690.648	0.1
690.973	0.1
691.298	0.1
691.623	0.1
691.947	0.1
692.272	0.1
692.596	0.11
692.921	0.1
693.245	0.1
693.57	0.1
693.894	0.1
694.218	0.1
694.543	0.1
694.867	0.1
695.191	0.1
695.515	0.1
695.839	0.1
696.163	0.1
696.487	0.1
696.811	0.1
697.135	0.1
697.458	0.11
697.782	0.1
698.106	0.1
698.429	0.1
698.753	0.1
699.076	0.1
699.4	0.1
699.723	0.1
700.046	0.1
700.37	0.1
700.693	0.1
701.016	0.1
701.339	0.1
701.662	0.1
701.985	0.1
702.308	0.1
702.631	0.1
702.954	0.1
703.277	0.1
703.599	0.1
703.922	0.1
704.245	0.09
704.567	0.09
704.89	0.09
705.212	0.09
705.535	0.09
705.857	0.09
706.179	0.08
706.502	0.08
706.824	0.08
707.146	0.08
707.468	0.09
707.79	0.09
708.112	0.09
708.434	0.09
708.756	0.09
709.078	0.09
709.399	0.09
709.721	0.08
710.043	0.09
710.364	0.09
710.686	0.09
711.007	0.09
711.329	0.1
711.65	0.09
711.972	0.09
712.293	0.09
712.614	0.1
712.935	0.09
713.256	0.09
713.577	0.1
713.898	0.09
714.219	0.09
714.54	0.08
714.861	0.08
715.182	0.08
715.503	0.08
715.823	0.09
716.144	0.08
716.464	0.08
716.785	0.08
717.105	0.08
717.426	0.09
717.746	0.07
718.066	0.08
718.387	0.08
718.707	0.07
719.027	0.08
719.347	0.07
719.667	0.07
719.987	0.07
720.307	0.07
720.627	0.07
720.947	0.07
721.266	0.07
721.586	0.07
721.906	0.07
722.225	0.06
722.545	0.06
722.864	0.06
723.184	0.07
723.503	0.06
723.823	0.07
724.142	0.06
724.461	0.06
724.78	0.07
725.099	0.07
725.418	0.07
725.737	0.06
726.056	0.07
726.375	0.07
726.694	0.07
727.013	0.07
727.331	0.06
727.65	0.07
727.969	0.07
728.287	0.07
728.606	0.07
728.924	0.07
729.242	0.06
729.561	0.07
729.879	0.06
730.197	0.07
730.515	0.06
730.834	0.07
731.152	0.07
731.47	0.06
731.788	0.07
732.105	0.05
732.423	0.06
732.741	0.06
733.059	0.06
733.376	0.07
733.694	0.06
734.012	0.06
734.329	0.06
734.647	0.06
734.964	0.07
735.281	0.06
735.599	0.07
735.916	0.07
736.233	0.07
736.55	0.06
736.867	0.07
737.184	0.07
737.501	0.06
737.818	0.06
738.135	0.07
738.452	0.07
738.768	0.07
739.085	0.07
739.402	0.06
739.718	0.07
740.035	0.07
740.351	0.07
740.668	0.07
740.984	0.06
741.3	0.06
741.617	0.07
741.933	0.06
742.249	0.07
742.565	0.07
742.881	0.08
743.197	0.07
743.513	0.07
743.829	0.06
744.144	0.07
744.46	0.07
744.776	0.06
745.091	0.07
745.407	0.06
745.722	0.06
746.038	0.07
746.353	0.06
746.669	0.07
746.984	0.06
747.299	0.06
747.614	0.08
747.93	0.07
748.245	0.06
748.56	0.06
748.875	0.06
749.189	0.07
749.504	0.07
749.819	0.07
750.134	0.06
750.448	0.06
750.763	0.07
751.078	0.05
751.392	0.06
751.707	0.07
752.021	0.08
752.335	0.07
752.65	0.07
752.964	0.06
753.278	0.06
753.592	0.06
753.906	0.06
754.22	0.06
754.534	0.06
754.848	0.06
755.162	0.06
755.476	0.06
755.789	0.06
756.103	0.06
756.417	0.07
756.73	0.07
757.044	0.07
757.357	0.06
757.671	0.07
757.984	0.07
758.297	0.07
758.61	0.07
758.924	0.07
759.237	0.07
759.55	0.06
759.863	0.07
760.176	0.07
760.488	0.07
760.801	0.07
761.114	0.07
761.427	0.06
761.739	0.07
762.052	0.06
762.365	0.07
762.677	0.06
762.99	0.05
763.302	0.06
763.614	0.06
763.926	0.06
764.239	0.06
764.551	0.06
764.863	0.05
765.175	0.06
765.487	0.06
765.799	0.05
766.111	0.06
766.423	0.06
766.734	0.05
767.046	0.05
767.358	0.05
767.669	0.06
767.981	0.06
768.292	0.05
768.604	0.05
768.915	0.06
769.226	0.06
769.537	0.05
769.849	0.06
770.16	0.05
770.471	0.06
770.782	0.05
771.093	0.05
771.404	0.04
771.715	0.05
772.025	0.05
772.336	0.05
772.647	0.05
772.957	0.05
773.268	0.05
773.578	0.05
773.889	0.05
774.199	0.05
774.51	0.05
774.82	0.05
775.13	0.05
775.44	0.05
775.75	0.05
776.06	0.05
776.37	0.05
776.68	0.06
776.99	0.05
777.3	0.05
777.61	0.05
777.92	0.05
778.229	0.05
778.539	0.06
778.848	0.05
779.158	0.05
779.467	0.06
779.777	0.05
780.086	0.06
780.395	0.05
780.704	0.05
781.013	0.04
781.323	0.04
781.632	0.05
781.941	0.05
782.249	0.05
782.558	0.05
782.867	0.05
783.176	0.05
783.485	0.05
783.793	0.05
784.102	0.05
784.41	0.05
784.719	0.04
785.027	0.05
785.335	0.04
785.644	0.04
785.952	0.05
786.26	0.05
786.568	0.04
786.876	0.04
787.184	0.05
787.492	0.05
787.8	0.04
788.108	0.05
788.416	0.04
788.723	0.04
789.031	0.04
789.338	0.05
789.646	0.04
789.953	0.05
790.261	0.05
790.568	0.05
790.876	0.04
791.183	0.05
791.49	0.04
791.797	0.04
792.104	0.04
792.411	0.05
792.718	0.04
793.025	0.05
793.332	0.04
793.639	0.05
793.945	0.06
794.252	0.05
794.559	0.05
794.865	0.05
795.172	0.05
795.478	0.05
795.784	0.06
796.091	0.05
796.397	0.06
796.703	0.06
797.009	0.06
797.315	0.06
797.622	0.06
797.927	0.05
798.233	0.05
798.539	0.06
798.845	0.06
799.151	0.05
799.456	0.05
799.762	0.05
800.068	0.05
800.373	0.06
800.679	0.04
800.984	0.05
801.289	0.05
801.595	0.05
801.9	0.04
802.205	0.04
802.51	0.05
802.815	0.05
803.12	0.05
803.425	0.05
803.73	0.05
804.035	0.04
804.339	0.04
804.644	0.04
804.949	0.04
805.253	0.05
805.558	0.05
805.862	0.04
806.167	0.05
806.471	0.05
806.775	0.05
807.08	0.05
807.384	0.05
807.688	0.05
807.992	0.05
808.296	0.05
808.6	0.05
808.904	0.06
809.207	0.05
809.511	0.06
809.815	0.06
810.119	0.05
810.422	0.05
810.726	0.06
811.029	0.06
811.332	0.05
811.636	0.06
811.939	0.05
812.242	0.06
812.546	0.06
812.849	0.05
813.152	0.06
813.455	0.06
813.758	0.05
814.06	0.05
814.363	0.05
814.666	0.06
814.969	0.05
815.271	0.05
815.574	0.05
815.877	0.05
816.179	0.05
816.481	0.04
816.784	0.05
817.086	0.04
817.388	0.04
817.69	0.04
817.993	0.04
818.295	0.04
818.597	0.03
818.899	0.04
819.2	0.03
819.502	0.03
819.804	0.04
820.106	0.03
820.407	0.03
820.709	0.03
821.01	0.03
821.312	0.04
821.613	0.03
821.915	0.03
822.216	0.03
822.517	0.03
822.818	0.03
823.119	0.04
823.42	0.05
823.721	0.03
824.022	0.03
824.323	0.03
824.624	0.03
824.925	0.04
825.226	0.04
825.526	0.03
825.827	0.04
826.127	0.04
826.428	0.04
826.728	0.04
827.028	0.03
827.329	0.03
827.629	0.03
827.929	0.03
828.229	0.04
828.529	0.03
828.829	0.04
829.129	0.04
829.429	0.04
829.729	0.03
830.029	0.03
830.328	0.03
830.628	0.03
830.927	0.02
831.227	0.03
831.526	0.03
831.826	0.03
832.125	0.03
832.424	0.03
832.724	0.03
833.023	0.02
833.322	0.04
833.621	0.03
833.92	0.01
834.219	0.02
834.518	0.02
834.816	0.02
835.115	0.03
835.414	0.03
835.712	0.02
836.011	0.02
836.309	0.03
836.608	0.02
836.906	0.02
837.205	0.01
837.503	0.02
837.801	0.01
838.099	0.01
838.397	-0.01
838.695	-0
838.993	0
839.291	0
839.589	0
839.887	0
840.184	-0.01
840.482	-0.01
840.78	-0
841.077	-0.01
841.375	-0.01
841.672	-0.01
841.969	-0.01
842.267	-0.02
842.564	-0.02
842.861	-0.01
843.158	-0.02
843.455	-0.04
843.752	-0.02
844.049	-0.03
844.346	-0.03
844.643	-0.04
844.94	-0.04
845.236	-0.03
845.533	-0.04
845.83	-0.04
846.126	-0.04
846.423	-0.04
846.719	-0.06
847.015	-0.05
847.312	-0.05
847.608	-0.06
847.904	-0.05
848.2	-0.05
848.496	-0.06
848.792	-0.05
849.088	-0.05
849.384	-0.06
849.68	-0.06
849.975	-0.06
850.271	-0.06
850.567	-0.05
850.862	-0.07
851.158	-0.06
851.453	-0.07
851.748	-0.07
852.044	-0.07
852.339	-0.06
852.634	-0.08
852.929	-0.07
853.224	-0.07
853.519	-0.07
853.814	-0.06
854.109	-0.07
854.404	-0.08
854.699	-0.07
854.994	-0.07
855.288	-0.08
855.583	-0.06
855.877	-0.09
856.172	-0.07
856.466	-0.08
856.76	-0.07
857.055	-0.08
857.349	-0.09
857.643	-0.09
857.937	-0.1
858.231	-0.09
858.525	-0.1
858.819	-0.1
859.113	-0.1
859.407	-0.1
859.701	-0.11
859.994	-0.11
860.288	-0.09
860.581	-0.1
860.875	-0.11
861.168	-0.11
861.462	-0.1
861.755	-0.1
862.048	-0.11
862.341	-0.11
862.634	-0.11
862.928	-0.11
863.221	-0.11
863.513	-0.12
863.806	-0.12
864.099	-0.12
864.392	-0.13
864.685	-0.11
864.977	-0.13
865.27	-0.12
865.562	-0.12
865.855	-0.12
866.147	-0.14
866.44	-0.12
866.732	-0.13
867.024	-0.13
867.316	-0.14
867.608	-0.13
867.9	-0.14
868.192	-0.14
868.484	-0.13
868.776	-0.14
869.068	-0.14
869.359	-0.14
869.651	-0.15
869.943	-0.16
870.234	-0.15
870.526	-0.15
870.817	-0.15
871.108	-0.16
871.4	-0.15
871.691	-0.16
871.982	-0.17
872.273	-0.18
872.564	-0.17
872.855	-0.17
873.146	-0.17
873.437	-0.18
873.728	-0.18
874.019	-0.17
874.309	-0.17
874.6	-0.18
874.89	-0.17
875.181	-0.17
875.471	-0.16
875.762	-0.16
876.052	-0.17
876.342	-0.15
876.632	-0.17
876.922	-0.17
877.213	-0.18
877.503	-0.19
877.792	-0.18
878.082	-0.19
878.372	-0.16
878.662	-0.2
878.952	-0.18
879.241	-0.18
879.531	-0.18
879.82	-0.17
880.11	-0.18
880.399	-0.18
880.688	-0.17
880.978	-0.17
881.267	-0.17
