Data from 12-12-AQDScycling_Absorbance__545__00545.txt Node

Date: Tue Dec 12 13:12:59 EST 2023
User: kyuminlee
Spectrometer: FLMS00943
Trigger mode: 0
Integration Time (sec): 1.000000E-1
Scans to average: 1
Electric dark correction enabled: true
Nonlinearity correction enabled: false
Boxcar width: 0
XAxis mode: Wavelengths
Number of Pixels in Spectrum: 2048
>>>>>Begin Spectral Data<<<<<
179.651	0.07
180.037	0.07
180.424	0.07
180.81	-0.31
181.197	0.03
181.583	-0
181.97	-0.52
182.356	-0
182.743	-0
183.129	0.66
183.515	0.44
183.901	-2.76
184.288	0.8
184.674	0.44
185.06	-0
185.446	0.5
185.832	-0.1
186.218	0.23
186.604	-0
186.99	-0
187.376	0.6
187.762	-0.36
188.148	0.79
188.534	-0.49
188.92	0.13
189.305	0.11
189.691	0.15
190.077	0.14
190.463	0.23
190.848	-0.01
191.234	0.09
191.619	0.07
192.005	0.18
192.391	0.23
192.776	0.29
193.161	0.06
193.547	0.22
193.932	0.11
194.318	0.07
194.703	0.09
195.088	0.36
195.473	0.25
195.859	0.18
196.244	0.12
196.629	0.17
197.014	0.01
197.399	0.11
197.784	0.16
198.169	-0.01
198.554	0.21
198.939	0.1
199.324	0.12
199.709	0.18
200.094	0.09
200.478	0.17
200.863	0.3
201.248	0.22
201.633	0.21
202.017	0.07
202.402	0.15
202.787	0.12
203.171	0.09
203.556	0.19
203.94	0.11
204.325	0.27
204.709	0.14
205.093	0.1
205.478	0.18
205.862	0.17
206.246	0.24
206.631	0.22
207.015	0.07
207.399	0.17
207.783	0.09
208.167	0.25
208.551	0.25
208.935	0.27
209.319	0.12
209.703	0.25
210.087	0.23
210.471	0.09
210.855	0.03
211.239	0.18
211.623	0.32
212.007	0.31
212.39	0.35
212.774	0.1
213.158	0.11
213.541	0.23
213.925	0.3
214.309	0.41
214.692	0.19
215.076	0.14
215.459	0.09
215.842	0.12
216.226	0.3
216.609	0.41
216.993	0.22
217.376	0.38
217.759	0.2
218.142	0.4
218.525	0.68
218.909	0.28
219.292	0.36
219.675	0.57
220.058	0.64
220.441	0.44
220.824	0.53
221.207	0.66
221.59	0.53
221.973	0.49
222.355	0.67
222.738	0.58
223.121	0.6
223.504	0.61
223.886	0.59
224.269	0.73
224.652	0.75
225.034	0.7
225.417	0.79
225.799	0.77
226.182	0.84
226.564	0.8
226.947	0.74
227.329	0.88
227.711	0.91
228.094	1.1
228.476	0.91
228.858	0.89
229.24	0.86
229.623	0.85
230.005	0.8
230.387	0.84
230.769	0.79
231.151	0.98
231.533	1.08
231.915	0.88
232.297	1.07
232.679	1.1
233.061	0.93
233.442	1.14
233.824	1.08
234.206	1.29
234.588	1.09
234.969	0.99
235.351	1.01
235.733	1.18
236.114	1.21
236.496	1.06
236.877	1.06
237.259	1.03
237.64	0.96
238.022	1.14
238.403	1.02
238.784	1.08
239.165	0.93
239.547	1.16
239.928	1.05
240.309	1.25
240.69	1.09
241.071	1.06
241.452	1.15
241.834	0.99
242.215	1.24
242.595	1.08
242.976	1.23
243.357	1.25
243.738	1.06
244.119	1.65
244.5	1.04
244.881	1.59
245.261	1.09
245.642	1.12
246.023	1.15
246.403	1.21
246.784	1.23
247.164	1.34
247.545	1.23
247.925	1.41
248.306	1.26
248.686	1.43
249.067	1.23
249.447	1.38
249.827	1.43
250.207	1.31
250.588	1.29
250.968	1.33
251.348	1.35
251.728	1.41
252.108	1.39
252.488	1.33
252.868	1.33
253.248	1.34
253.628	1.42
254.008	1.52
254.388	1.35
254.768	1.27
255.147	1.38
255.527	1.44
255.907	1.35
256.287	1.39
256.666	1.41
257.046	1.44
257.425	1.72
257.805	1.33
258.184	1.3
258.564	1.36
258.943	1.38
259.323	1.52
259.702	1.44
260.081	1.3
260.461	1.46
260.84	1.46
261.219	1.66
261.598	1.45
261.977	1.49
262.356	1.6
262.736	1.39
263.115	1.64
263.494	1.43
263.873	1.5
264.251	1.51
264.63	1.56
265.009	1.45
265.388	1.47
265.767	1.42
266.145	1.42
266.524	1.45
266.903	1.37
267.281	1.58
267.66	1.66
268.039	1.59
268.417	1.37
268.796	1.4
269.174	1.42
269.552	1.37
269.931	1.56
270.309	1.42
270.687	1.58
271.066	1.69
271.444	1.45
271.822	1.68
272.2	1.44
272.578	1.42
272.956	1.47
273.334	1.4
273.712	1.39
274.09	1.42
274.468	1.48
274.846	1.3
275.224	1.37
275.602	1.43
275.98	1.47
276.357	1.51
276.735	1.36
277.113	1.39
277.49	1.33
277.868	1.4
278.246	1.45
278.623	1.32
279.001	1.32
279.378	1.46
279.756	1.69
280.133	1.66
280.51	1.42
280.888	1.49
281.265	1.49
281.642	1.39
282.019	1.42
282.396	1.58
282.773	1.5
283.151	1.49
283.528	1.57
283.905	1.39
284.282	1.5
284.659	1.66
285.035	1.41
285.412	1.49
285.789	1.49
286.166	1.46
286.543	1.59
286.919	1.47
287.296	1.42
287.673	1.69
288.049	1.61
288.426	1.89
288.802	1.58
289.179	1.45
289.555	1.73
289.932	1.58
290.308	1.35
290.684	1.35
291.061	1.39
291.437	1.63
291.813	1.39
292.189	1.35
292.565	1.26
292.942	1.36
293.318	1.49
293.694	1.42
294.07	1.35
294.446	1.4
294.822	1.7
295.197	1.39
295.573	1.64
295.949	1.59
296.325	1.43
296.701	1.65
297.076	1.5
297.452	1.54
297.828	1.55
298.203	1.58
298.579	1.34
298.954	1.43
299.33	1.44
299.705	1.43
300.081	1.42
300.456	1.37
300.831	1.31
301.206	1.39
301.582	1.43
301.957	1.32
302.332	1.38
302.707	1.34
303.082	1.26
303.457	1.37
303.832	1.29
304.207	1.27
304.582	1.33
304.957	1.3
305.332	1.29
305.707	1.3
306.082	1.26
306.456	1.35
306.831	1.26
307.206	1.22
307.58	1.23
307.955	1.18
308.33	1.21
308.704	1.19
309.079	1.17
309.453	1.27
309.828	1.19
310.202	1.15
310.576	1.18
310.951	1.23
311.325	1.17
311.699	1.17
312.073	1.16
312.447	1.16
312.821	1.13
313.196	1.18
313.57	1.05
313.944	1.07
314.317	1.08
314.691	1.07
315.065	1.12
315.439	1.21
315.813	1.03
316.187	1.06
316.56	1.15
316.934	1.11
317.308	1.09
317.681	1.13
318.055	1.11
318.428	1.1
318.802	1.11
319.175	1.15
319.549	1.12
319.922	1.07
320.295	1.07
320.669	1.15
321.042	1.15
321.415	1.14
321.788	1.15
322.162	1.1
322.535	1.13
322.908	1.15
323.281	1.12
323.654	1.19
324.027	1.15
324.4	1.11
324.773	1.1
325.145	1.14
325.518	1.14
325.891	1.07
326.264	1.14
326.636	1.08
327.009	1.11
327.382	1.19
327.754	1.19
328.127	1.09
328.499	1.16
328.872	1.2
329.244	1.17
329.616	1.19
329.989	1.18
330.361	1.17
330.733	1.12
331.106	1.19
331.478	1.19
331.85	1.12
332.222	1.1
332.594	1.17
332.966	1.18
333.338	1.25
333.71	1.28
334.082	1.21
334.454	1.2
334.826	1.16
335.197	1.22
335.569	1.16
335.941	1.16
336.312	1.21
336.684	1.17
337.056	1.28
337.427	1.26
337.799	1.25
338.17	1.22
338.542	1.18
338.913	1.28
339.284	1.27
339.656	1.21
340.027	1.21
340.398	1.22
340.769	1.27
341.141	1.33
341.512	1.23
341.883	1.26
342.254	1.27
342.625	1.35
342.996	1.26
343.367	1.26
343.738	1.27
344.108	1.26
344.479	1.41
344.85	1.28
345.221	1.3
345.591	1.26
345.962	1.3
346.333	1.28
346.703	1.21
347.074	1.22
347.444	1.25
347.815	1.31
348.185	1.38
348.556	1.32
348.926	1.27
349.296	1.2
349.666	1.26
350.037	1.26
350.407	1.27
350.777	1.24
351.147	1.25
351.517	1.32
351.887	1.34
352.257	1.29
352.627	1.32
352.997	1.31
353.367	1.4
353.737	1.4
354.106	1.32
354.476	1.31
354.846	1.37
355.216	1.41
355.585	1.38
355.955	1.45
356.324	1.47
356.694	1.45
357.063	1.37
357.433	1.4
357.802	1.42
358.171	1.53
358.541	1.48
358.91	1.44
359.279	1.54
359.648	1.4
360.017	1.52
360.387	1.42
360.756	1.41
361.125	1.54
361.494	1.51
361.863	1.51
362.231	1.47
362.6	1.43
362.969	1.46
363.338	1.41
363.707	1.64
364.075	1.54
364.444	1.41
364.813	1.55
365.181	1.45
365.55	1.45
365.918	1.56
366.287	1.57
366.655	1.59
367.024	1.55
367.392	1.64
367.76	1.34
368.128	1.47
368.497	1.5
368.865	1.53
369.233	1.54
369.601	1.5
369.969	1.58
370.337	1.64
370.705	1.51
371.073	1.48
371.441	1.52
371.809	1.44
372.177	1.47
372.544	1.58
372.912	1.53
373.28	1.69
373.647	1.57
374.015	1.57
374.383	1.64
374.75	2.03
375.118	1.68
375.485	1.53
375.853	1.65
376.22	1.62
376.587	1.47
376.955	1.67
377.322	1.72
377.689	1.45
378.056	1.4
378.423	1.55
378.79	1.52
379.157	1.54
379.524	1.6
379.891	1.54
380.258	1.55
380.625	1.58
380.992	1.47
381.359	1.56
381.726	1.79
382.092	1.52
382.459	1.52
382.826	1.53
383.192	1.73
383.559	1.61
383.925	1.7
384.292	1.54
384.658	1.65
385.025	1.56
385.391	1.8
385.757	1.56
386.123	1.87
386.49	1.68
386.856	1.7
387.222	1.78
387.588	1.71
387.954	1.6
388.32	1.71
388.686	1.69
389.052	1.62
389.418	1.65
389.784	1.57
390.15	1.6
390.515	1.43
390.881	1.69
391.247	1.48
391.613	1.64
391.978	1.43
392.344	1.73
392.709	1.79
393.075	1.7
393.44	1.78
393.806	1.61
394.171	1.43
394.536	1.48
394.902	1.47
395.267	1.51
395.632	1.49
395.997	1.48
396.362	1.5
396.727	1.53
397.092	1.57
397.457	1.54
397.822	1.51
398.187	1.6
398.552	1.46
398.917	1.6
399.282	1.51
399.646	1.41
400.011	1.9
400.376	1.48
400.74	1.57
401.105	1.5
401.47	1.58
401.834	1.64
402.199	1.55
402.563	1.48
402.927	1.6
403.292	1.65
403.656	1.54
404.02	1.59
404.384	1.66
404.749	1.47
405.113	1.65
405.477	1.61
405.841	1.62
406.205	1.63
406.569	1.54
406.933	1.56
407.296	1.74
407.66	1.68
408.024	1.52
408.388	1.58
408.752	1.55
409.115	1.77
409.479	1.67
409.842	1.45
410.206	1.53
410.569	1.57
410.933	1.62
411.296	1.4
411.66	1.52
412.023	1.46
412.386	1.45
412.749	1.45
413.113	1.6
413.476	1.43
413.839	1.5
414.202	1.41
414.565	1.36
414.928	1.53
415.291	1.38
415.654	1.56
416.017	1.57
416.38	1.52
416.742	1.45
417.105	1.4
417.468	1.39
417.83	1.42
418.193	1.63
418.556	1.38
418.918	1.37
419.281	1.48
419.643	1.58
420.005	1.42
420.368	1.43
420.73	1.47
421.092	1.46
421.455	1.66
421.817	1.35
422.179	1.41
422.541	1.47
422.903	1.54
423.265	1.6
423.627	1.52
423.989	1.42
424.351	1.43
424.713	1.52
425.075	1.46
425.436	1.49
425.798	1.49
426.16	1.5
426.521	1.45
426.883	1.54
427.245	1.52
427.606	1.41
427.967	1.35
428.329	1.37
428.69	1.41
429.052	1.33
429.413	1.55
429.774	1.54
430.135	1.5
430.497	1.5
430.858	1.42
431.219	1.45
431.58	1.41
431.941	1.42
432.302	1.47
432.663	1.43
433.024	1.42
433.384	1.51
433.745	1.45
434.106	1.54
434.467	1.42
434.827	1.37
435.188	1.43
435.548	1.61
435.909	1.44
436.269	1.39
436.63	1.41
436.99	1.42
437.351	1.26
437.711	1.38
438.071	1.34
438.431	1.3
438.792	1.38
439.152	1.35
439.512	1.3
439.872	1.34
440.232	1.41
440.592	1.36
440.952	1.36
441.312	1.32
441.671	1.32
442.031	1.37
442.391	1.28
442.751	1.33
443.11	1.35
443.47	1.31
443.83	1.3
444.189	1.28
444.549	1.25
444.908	1.27
445.267	1.2
445.627	1.22
445.986	1.27
446.345	1.23
446.705	1.25
447.064	1.22
447.423	1.22
447.782	1.25
448.141	1.21
448.5	1.15
448.859	1.21
449.218	1.18
449.577	1.2
449.936	1.19
450.295	1.18
450.653	1.14
451.012	1.17
451.371	1.16
451.729	1.18
452.088	1.16
452.447	1.11
452.805	1.14
453.163	1.14
453.522	1.1
453.88	1.06
454.239	1.1
454.597	1.09
454.955	1.05
455.313	1.05
455.671	1.06
456.029	1.05
456.388	1.03
456.746	1
457.104	1.01
457.461	0.98
457.819	0.99
458.177	0.97
458.535	0.96
458.893	0.95
459.25	0.94
459.608	0.92
459.966	0.89
460.323	0.9
460.681	0.88
461.038	0.88
461.396	0.86
461.753	0.85
462.111	0.83
462.468	0.83
462.825	0.81
463.182	0.8
463.54	0.79
463.897	0.8
464.254	0.78
464.611	0.77
464.968	0.76
465.325	0.76
465.682	0.73
466.039	0.73
466.395	0.73
466.752	0.72
467.109	0.69
467.466	0.69
467.822	0.69
468.179	0.68
468.535	0.66
468.892	0.66
469.248	0.63
469.605	0.62
469.961	0.63
470.318	0.62
470.674	0.61
471.03	0.6
471.386	0.58
471.743	0.58
472.099	0.57
472.455	0.56
472.811	0.56
473.167	0.54
473.523	0.54
473.879	0.52
474.235	0.51
474.59	0.51
474.946	0.5
475.302	0.49
475.657	0.48
476.013	0.47
476.369	0.47
476.724	0.46
477.08	0.47
477.435	0.46
477.791	0.45
478.146	0.43
478.501	0.43
478.857	0.43
479.212	0.42
479.567	0.41
479.922	0.4
480.277	0.4
480.632	0.39
480.987	0.39
481.342	0.38
481.697	0.37
482.052	0.36
482.407	0.36
482.762	0.35
483.116	0.34
483.471	0.34
483.826	0.33
484.18	0.33
484.535	0.32
484.89	0.32
485.244	0.31
485.598	0.31
485.953	0.31
486.307	0.31
486.661	0.3
487.016	0.29
487.37	0.29
487.724	0.29
488.078	0.28
488.432	0.28
488.786	0.27
489.14	0.28
489.494	0.26
489.848	0.26
490.202	0.26
490.556	0.26
490.91	0.25
491.263	0.24
491.617	0.24
491.971	0.24
492.324	0.24
492.678	0.24
493.031	0.24
493.385	0.23
493.738	0.23
494.091	0.23
494.445	0.22
494.798	0.22
495.151	0.22
495.504	0.21
495.857	0.21
496.21	0.21
496.564	0.2
496.916	0.21
497.269	0.2
497.622	0.19
497.975	0.19
498.328	0.2
498.681	0.2
499.033	0.19
499.386	0.19
499.739	0.19
500.091	0.19
500.444	0.18
500.796	0.18
501.149	0.18
501.501	0.18
501.854	0.18
502.206	0.17
502.558	0.18
502.91	0.17
503.263	0.17
503.615	0.17
503.967	0.17
504.319	0.17
504.671	0.17
505.023	0.17
505.375	0.16
505.726	0.16
506.078	0.16
506.43	0.16
506.782	0.16
507.133	0.16
507.485	0.16
507.837	0.17
508.188	0.16
508.54	0.17
508.891	0.16
509.243	0.15
509.594	0.16
509.945	0.16
510.296	0.15
510.648	0.16
510.999	0.15
511.35	0.15
511.701	0.15
512.052	0.15
512.403	0.15
512.754	0.15
513.105	0.15
513.456	0.15
513.807	0.14
514.157	0.15
514.508	0.15
514.859	0.14
515.209	0.15
515.56	0.15
515.91	0.14
516.261	0.15
516.611	0.13
516.962	0.15
517.312	0.15
517.662	0.15
518.013	0.15
518.363	0.16
518.713	0.15
519.063	0.15
519.413	0.15
519.763	0.14
520.113	0.15
520.463	0.15
520.813	0.15
521.163	0.15
521.512	0.15
521.862	0.14
522.212	0.15
522.562	0.14
522.911	0.15
523.261	0.14
523.61	0.14
523.96	0.14
524.309	0.15
524.658	0.15
525.008	0.14
525.357	0.14
525.706	0.14
526.056	0.14
526.405	0.15
526.754	0.15
527.103	0.14
527.452	0.14
527.801	0.15
528.15	0.15
528.499	0.14
528.847	0.15
529.196	0.15
529.545	0.15
529.893	0.15
530.242	0.14
530.591	0.15
530.939	0.15
531.288	0.15
531.636	0.15
531.985	0.15
532.333	0.15
532.681	0.14
533.029	0.15
533.378	0.15
533.726	0.15
534.074	0.16
534.422	0.15
534.77	0.15
535.118	0.15
535.466	0.16
535.814	0.15
536.162	0.15
536.509	0.15
536.857	0.15
537.205	0.16
537.552	0.15
537.9	0.15
538.248	0.15
538.595	0.15
538.943	0.15
539.29	0.15
539.637	0.15
539.985	0.15
540.332	0.15
540.679	0.15
541.026	0.15
541.373	0.15
541.721	0.14
542.068	0.15
542.415	0.14
542.762	0.14
543.108	0.14
543.455	0.14
543.802	0.14
544.149	0.14
544.496	0.15
544.842	0.14
545.189	0.13
545.535	0.14
545.882	0.14
546.228	0.13
546.575	0.13
546.921	0.13
547.267	0.14
547.614	0.14
547.96	0.14
548.306	0.14
548.652	0.14
548.998	0.14
549.344	0.14
549.69	0.14
550.036	0.14
550.382	0.13
550.728	0.14
551.074	0.14
551.42	0.15
551.765	0.14
552.111	0.15
552.457	0.15
552.802	0.15
553.148	0.14
553.493	0.14
553.839	0.15
554.184	0.15
554.529	0.14
554.875	0.15
555.22	0.15
555.565	0.15
555.91	0.14
556.255	0.15
556.6	0.15
556.945	0.14
557.29	0.15
557.635	0.15
557.98	0.14
558.325	0.14
558.67	0.15
559.014	0.15
559.359	0.14
559.704	0.14
560.048	0.14
560.393	0.14
560.737	0.14
561.082	0.15
561.426	0.13
561.77	0.15
562.115	0.14
562.459	0.15
562.803	0.15
563.147	0.14
563.491	0.15
563.835	0.15
564.179	0.14
564.523	0.14
564.867	0.14
565.211	0.14
565.555	0.15
565.899	0.15
566.242	0.15
566.586	0.13
566.93	0.14
567.273	0.15
567.617	0.14
567.96	0.14
568.304	0.15
568.647	0.14
568.99	0.15
569.334	0.15
569.677	0.15
570.02	0.15
570.363	0.15
570.706	0.15
571.049	0.15
571.392	0.15
571.735	0.14
572.078	0.15
572.421	0.15
572.764	0.15
573.106	0.15
573.449	0.14
573.792	0.15
574.134	0.14
574.477	0.15
574.819	0.15
575.162	0.15
575.504	0.14
575.847	0.15
576.189	0.15
576.531	0.14
576.873	0.14
577.215	0.15
577.558	0.15
577.9	0.14
578.242	0.14
578.584	0.14
578.926	0.15
579.267	0.15
579.609	0.15
579.951	0.15
580.293	0.15
580.634	0.15
580.976	0.15
581.318	0.14
581.659	0.14
582.001	0.15
582.342	0.14
582.683	0.14
583.025	0.13
583.366	0.14
583.707	0.14
584.049	0.14
584.39	0.14
584.731	0.13
585.072	0.14
585.413	0.14
585.754	0.14
586.095	0.14
586.435	0.14
586.776	0.14
587.117	0.14
587.458	0.13
587.798	0.14
588.139	0.14
588.48	0.14
588.82	0.14
589.161	0.14
589.501	0.14
589.841	0.14
590.182	0.14
590.522	0.14
590.862	0.14
591.202	0.14
591.542	0.14
591.882	0.14
592.222	0.14
592.562	0.14
592.902	0.14
593.242	0.14
593.582	0.14
593.922	0.13
594.261	0.14
594.601	0.14
594.941	0.13
595.28	0.14
595.62	0.14
595.959	0.14
596.299	0.14
596.638	0.14
596.977	0.15
597.317	0.15
597.656	0.14
597.995	0.14
598.334	0.15
598.673	0.14
599.012	0.14
599.351	0.14
599.69	0.14
600.029	0.15
600.368	0.15
600.707	0.15
601.046	0.14
601.384	0.15
601.723	0.14
602.061	0.14
602.4	0.14
602.738	0.15
603.077	0.14
603.415	0.14
603.754	0.14
604.092	0.14
604.43	0.14
604.768	0.14
605.107	0.14
605.445	0.13
605.783	0.14
606.121	0.13
606.459	0.14
606.796	0.14
607.134	0.14
607.472	0.13
607.81	0.14
608.148	0.14
608.485	0.14
608.823	0.14
609.16	0.13
609.498	0.13
609.835	0.13
610.173	0.13
610.51	0.13
610.847	0.13
611.185	0.13
611.522	0.13
611.859	0.14
612.196	0.14
612.533	0.14
612.87	0.14
613.207	0.14
613.544	0.14
613.881	0.15
614.217	0.14
614.554	0.14
614.891	0.14
615.228	0.14
615.564	0.15
615.901	0.14
616.237	0.15
616.574	0.15
616.91	0.15
617.246	0.15
617.583	0.15
617.919	0.15
618.255	0.15
618.591	0.14
618.927	0.14
619.263	0.15
619.599	0.15
619.935	0.15
620.271	0.15
620.607	0.15
620.943	0.14
621.279	0.14
621.614	0.15
621.95	0.14
622.286	0.14
622.621	0.14
622.957	0.14
623.292	0.14
623.627	0.14
623.963	0.14
624.298	0.15
624.633	0.13
624.968	0.14
625.304	0.13
625.639	0.13
625.974	0.13
626.309	0.13
626.644	0.14
626.979	0.14
627.313	0.13
627.648	0.14
627.983	0.14
628.318	0.13
628.652	0.13
628.987	0.13
629.321	0.13
629.656	0.12
629.99	0.12
630.325	0.13
630.659	0.13
630.993	0.12
631.327	0.12
631.662	0.12
631.996	0.12
632.33	0.12
632.664	0.12
632.998	0.12
633.332	0.12
633.666	0.13
633.999	0.13
634.333	0.12
634.667	0.12
635.001	0.12
635.334	0.12
635.668	0.12
636.001	0.12
636.335	0.12
636.668	0.12
637.001	0.12
637.335	0.12
637.668	0.12
638.001	0.11
638.334	0.12
638.668	0.12
639.001	0.12
639.334	0.11
639.667	0.12
639.999	0.12
640.332	0.13
640.665	0.12
640.998	0.12
641.331	0.12
641.663	0.12
641.996	0.12
642.328	0.12
642.661	0.12
642.993	0.12
643.326	0.12
643.658	0.11
643.99	0.11
644.323	0.11
644.655	0.11
644.987	0.11
645.319	0.12
645.651	0.12
645.983	0.12
646.315	0.11
646.647	0.11
646.979	0.12
647.31	0.11
647.642	0.12
647.974	0.11
648.305	0.12
648.637	0.12
648.968	0.12
649.3	0.12
649.631	0.12
649.963	0.12
650.294	0.12
650.625	0.12
650.957	0.12
651.288	0.13
651.619	0.12
651.95	0.12
652.281	0.12
652.612	0.12
652.943	0.13
653.274	0.13
653.604	0.12
653.935	0.11
654.266	0.12
654.596	0.12
654.927	0.11
655.258	0.12
655.588	0.12
655.918	0.12
656.249	0.1
656.579	0.12
656.909	0.11
657.24	0.11
657.57	0.11
657.9	0.11
658.23	0.11
658.56	0.12
658.89	0.12
659.22	0.11
659.55	0.12
659.88	0.12
660.209	0.12
660.539	0.13
660.869	0.12
661.198	0.12
661.528	0.12
661.857	0.12
662.187	0.12
662.516	0.12
662.846	0.11
663.175	0.12
663.504	0.12
663.833	0.12
664.163	0.11
664.492	0.11
664.821	0.12
665.15	0.11
665.479	0.11
665.807	0.11
666.136	0.11
666.465	0.11
666.794	0.12
667.122	0.11
667.451	0.12
667.78	0.11
668.108	0.12
668.437	0.11
668.765	0.11
669.093	0.12
669.422	0.12
669.75	0.11
670.078	0.11
670.406	0.11
670.734	0.11
671.062	0.11
671.39	0.11
671.718	0.11
672.046	0.11
672.374	0.1
672.702	0.11
673.029	0.1
673.357	0.11
673.685	0.11
674.012	0.11
674.34	0.1
674.667	0.11
674.995	0.11
675.322	0.11
675.649	0.11
675.977	0.11
676.304	0.11
676.631	0.11
676.958	0.11
677.285	0.1
677.612	0.1
677.939	0.11
678.266	0.11
678.593	0.1
678.92	0.11
679.246	0.1
679.573	0.1
679.9	0.1
680.226	0.11
680.553	0.1
680.879	0.1
681.206	0.11
681.532	0.11
681.858	0.1
682.184	0.1
682.511	0.11
682.837	0.1
683.163	0.11
683.489	0.1
683.815	0.1
684.141	0.11
684.467	0.1
684.793	0.1
685.118	0.09
685.444	0.1
685.77	0.1
686.095	0.1
686.421	0.1
686.746	0.1
687.072	0.1
687.397	0.1
687.723	0.1
688.048	0.11
688.373	0.1
688.698	0.1
689.023	0.1
689.349	0.1
689.674	0.1
689.999	0.09
690.323	0.09
690.648	0.09
690.973	0.1
691.298	0.1
691.623	0.1
691.947	0.09
692.272	0.1
692.596	0.1
692.921	0.1
693.245	0.1
693.57	0.1
693.894	0.1
694.218	0.09
694.543	0.09
694.867	0.1
695.191	0.09
695.515	0.1
695.839	0.09
696.163	0.1
696.487	0.1
696.811	0.1
697.135	0.09
697.458	0.1
697.782	0.1
698.106	0.09
698.429	0.09
698.753	0.1
699.076	0.09
699.4	0.09
699.723	0.1
700.046	0.09
700.37	0.1
700.693	0.09
701.016	0.09
701.339	0.09
701.662	0.09
701.985	0.09
702.308	0.1
702.631	0.1
702.954	0.1
703.277	0.09
703.599	0.09
703.922	0.09
704.245	0.09
704.567	0.09
704.89	0.09
705.212	0.09
705.535	0.09
705.857	0.08
706.179	0.08
706.502	0.08
706.824	0.08
707.146	0.08
707.468	0.09
707.79	0.08
708.112	0.09
708.434	0.09
708.756	0.09
709.078	0.09
709.399	0.09
709.721	0.08
710.043	0.09
710.364	0.09
710.686	0.09
711.007	0.08
711.329	0.1
711.65	0.09
711.972	0.09
712.293	0.09
712.614	0.09
712.935	0.09
713.256	0.09
713.577	0.1
713.898	0.09
714.219	0.08
714.54	0.08
714.861	0.07
715.182	0.09
715.503	0.08
715.823	0.09
716.144	0.08
716.464	0.08
716.785	0.08
717.105	0.08
717.426	0.08
717.746	0.08
718.066	0.07
718.387	0.07
718.707	0.07
719.027	0.08
719.347	0.07
719.667	0.08
719.987	0.07
720.307	0.07
720.627	0.07
720.947	0.08
721.266	0.07
721.586	0.07
721.906	0.08
722.225	0.07
722.545	0.07
722.864	0.07
723.184	0.08
723.503	0.07
723.823	0.08
724.142	0.07
724.461	0.07
724.78	0.08
725.099	0.08
725.418	0.07
725.737	0.07
726.056	0.07
726.375	0.07
726.694	0.07
727.013	0.07
727.331	0.07
727.65	0.07
727.969	0.07
728.287	0.07
728.606	0.07
728.924	0.07
729.242	0.07
729.561	0.08
729.879	0.07
730.197	0.08
730.515	0.07
730.834	0.07
731.152	0.08
731.47	0.07
731.788	0.07
732.105	0.07
732.423	0.08
732.741	0.08
733.059	0.07
733.376	0.08
733.694	0.07
734.012	0.07
734.329	0.06
734.647	0.08
734.964	0.08
735.281	0.08
735.599	0.09
735.916	0.08
736.233	0.07
736.55	0.08
736.867	0.07
737.184	0.08
737.501	0.07
737.818	0.08
738.135	0.08
738.452	0.07
738.768	0.07
739.085	0.07
739.402	0.06
739.718	0.07
740.035	0.07
740.351	0.07
740.668	0.07
740.984	0.07
741.3	0.07
741.617	0.08
741.933	0.06
742.249	0.08
742.565	0.08
742.881	0.08
743.197	0.07
743.513	0.07
743.829	0.06
744.144	0.06
744.46	0.06
744.776	0.07
745.091	0.06
745.407	0.06
745.722	0.06
746.038	0.06
746.353	0.05
746.669	0.07
746.984	0.05
747.299	0.06
747.614	0.07
747.93	0.07
748.245	0.06
748.56	0.05
748.875	0.06
749.189	0.05
749.504	0.06
749.819	0.06
750.134	0.06
750.448	0.06
750.763	0.06
751.078	0.05
751.392	0.06
751.707	0.07
752.021	0.07
752.335	0.07
752.65	0.07
752.964	0.06
753.278	0.06
753.592	0.06
753.906	0.06
754.22	0.07
754.534	0.07
754.848	0.06
755.162	0.07
755.476	0.07
755.789	0.07
756.103	0.06
756.417	0.07
756.73	0.07
757.044	0.06
757.357	0.06
757.671	0.07
757.984	0.07
758.297	0.07
758.61	0.08
758.924	0.07
759.237	0.06
759.55	0.07
759.863	0.06
760.176	0.08
760.488	0.06
760.801	0.06
761.114	0.06
761.427	0.06
761.739	0.07
762.052	0.06
762.365	0.06
762.677	0.07
762.99	0.06
763.302	0.06
763.614	0.06
763.926	0.06
764.239	0.06
764.551	0.06
764.863	0.06
765.175	0.06
765.487	0.07
765.799	0.05
766.111	0.05
766.423	0.06
766.734	0.06
767.046	0.06
767.358	0.06
767.669	0.06
767.981	0.05
768.292	0.05
768.604	0.06
768.915	0.06
769.226	0.06
769.537	0.05
769.849	0.06
770.16	0.06
770.471	0.05
770.782	0.05
771.093	0.05
771.404	0.04
771.715	0.05
772.025	0.05
772.336	0.06
772.647	0.05
772.957	0.06
773.268	0.06
773.578	0.05
773.889	0.06
774.199	0.07
774.51	0.06
774.82	0.05
775.13	0.06
775.44	0.06
775.75	0.06
776.06	0.06
776.37	0.06
776.68	0.06
776.99	0.06
777.3	0.06
777.61	0.07
777.92	0.05
778.229	0.06
778.539	0.06
778.848	0.06
779.158	0.06
779.467	0.06
779.777	0.06
780.086	0.05
780.395	0.05
780.704	0.05
781.013	0.05
781.323	0.05
781.632	0.05
781.941	0.05
782.249	0.05
782.558	0.04
782.867	0.06
783.176	0.04
783.485	0.04
783.793	0.05
784.102	0.06
784.41	0.04
784.719	0.05
785.027	0.04
785.335	0.05
785.644	0.05
785.952	0.05
786.26	0.05
786.568	0.04
786.876	0.05
787.184	0.05
787.492	0.06
787.8	0.05
788.108	0.06
788.416	0.04
788.723	0.05
789.031	0.04
789.338	0.04
789.646	0.04
789.953	0.06
790.261	0.05
790.568	0.06
790.876	0.05
791.183	0.06
791.49	0.05
791.797	0.05
792.104	0.05
792.411	0.05
792.718	0.05
793.025	0.05
793.332	0.05
793.639	0.05
793.945	0.06
794.252	0.06
794.559	0.06
794.865	0.06
795.172	0.06
795.478	0.05
795.784	0.06
796.091	0.06
796.397	0.07
796.703	0.06
797.009	0.07
797.315	0.07
797.622	0.06
797.927	0.06
798.233	0.05
798.539	0.07
798.845	0.07
799.151	0.07
799.456	0.06
799.762	0.06
800.068	0.06
800.373	0.07
800.679	0.07
800.984	0.06
801.289	0.06
801.595	0.06
801.9	0.06
802.205	0.06
802.51	0.06
802.815	0.06
803.12	0.06
803.425	0.06
803.73	0.06
804.035	0.06
804.339	0.05
804.644	0.05
804.949	0.05
805.253	0.06
805.558	0.06
805.862	0.05
806.167	0.05
806.471	0.04
806.775	0.05
807.08	0.05
807.384	0.05
807.688	0.06
807.992	0.06
808.296	0.05
808.6	0.05
808.904	0.06
809.207	0.05
809.511	0.06
809.815	0.06
810.119	0.06
810.422	0.06
810.726	0.07
811.029	0.07
811.332	0.07
811.636	0.07
811.939	0.06
812.242	0.07
812.546	0.07
812.849	0.06
813.152	0.07
813.455	0.07
813.758	0.07
814.06	0.07
814.363	0.07
814.666	0.08
814.969	0.07
815.271	0.07
815.574	0.07
815.877	0.07
816.179	0.07
816.481	0.06
816.784	0.06
817.086	0.06
817.388	0.05
817.69	0.05
817.993	0.05
818.295	0.06
818.597	0.05
818.899	0.05
819.2	0.05
819.502	0.05
819.804	0.05
820.106	0.05
820.407	0.04
820.709	0.05
821.01	0.05
821.312	0.05
821.613	0.04
821.915	0.04
822.216	0.04
822.517	0.04
822.818	0.04
823.119	0.04
823.42	0.04
823.721	0.03
824.022	0.04
824.323	0.04
824.624	0.04
824.925	0.04
825.226	0.05
825.526	0.04
825.827	0.05
826.127	0.04
826.428	0.04
826.728	0.03
827.028	0.04
827.329	0.03
827.629	0.03
827.929	0.04
828.229	0.04
828.529	0.04
828.829	0.04
829.129	0.04
829.429	0.04
829.729	0.04
830.029	0.03
830.328	0.04
830.628	0.03
830.927	0.02
831.227	0.03
831.526	0.03
831.826	0.03
832.125	0.04
832.424	0.03
832.724	0.03
833.023	0.03
833.322	0.04
833.621	0.03
833.92	0.03
834.219	0.03
834.518	0.03
834.816	0.02
835.115	0.02
835.414	0.03
835.712	0.02
836.011	0.01
836.309	0.02
836.608	0.02
836.906	0.01
837.205	0.01
837.503	0.01
837.801	0.01
838.099	0.01
838.397	-0.01
838.695	-0.01
838.993	0
839.291	-0.01
839.589	0
839.887	0
840.184	-0.01
840.482	-0
840.78	-0
841.077	-0
841.375	-0.01
841.672	-0.01
841.969	-0.01
842.267	-0.01
842.564	-0
842.861	-0
843.158	-0.01
843.455	-0.03
843.752	-0.02
844.049	-0.02
844.346	-0.02
844.643	-0.02
844.94	-0.02
845.236	-0.01
845.533	-0.02
845.83	-0.02
846.126	-0.03
846.423	-0.02
846.719	-0.04
847.015	-0.03
847.312	-0.04
847.608	-0.03
847.904	-0.04
848.2	-0.04
848.496	-0.04
848.792	-0.03
849.088	-0.02
849.384	-0.04
849.68	-0.05
849.975	-0.04
850.271	-0.05
850.567	-0.04
850.862	-0.04
851.158	-0.04
851.453	-0.04
851.748	-0.05
852.044	-0.04
852.339	-0.04
852.634	-0.06
852.929	-0.05
853.224	-0.06
853.519	-0.05
853.814	-0.05
854.109	-0.06
854.404	-0.06
854.699	-0.06
854.994	-0.05
855.288	-0.05
855.583	-0.06
855.877	-0.07
856.172	-0.06
856.466	-0.07
856.76	-0.06
857.055	-0.07
857.349	-0.08
857.643	-0.08
857.937	-0.09
858.231	-0.09
858.525	-0.1
858.819	-0.09
859.113	-0.1
859.407	-0.11
859.701	-0.11
859.994	-0.11
860.288	-0.1
860.581	-0.11
860.875	-0.09
861.168	-0.1
861.462	-0.11
861.755	-0.1
862.048	-0.11
862.341	-0.1
862.634	-0.1
862.928	-0.1
863.221	-0.1
863.513	-0.11
863.806	-0.11
864.099	-0.12
864.392	-0.11
864.685	-0.11
864.977	-0.11
865.27	-0.11
865.562	-0.12
865.855	-0.11
866.147	-0.11
866.44	-0.11
866.732	-0.11
867.024	-0.12
867.316	-0.12
867.608	-0.12
867.9	-0.13
868.192	-0.13
868.484	-0.13
868.776	-0.13
869.068	-0.12
869.359	-0.13
869.651	-0.14
869.943	-0.14
870.234	-0.14
870.526	-0.14
870.817	-0.14
871.108	-0.13
871.4	-0.14
871.691	-0.14
871.982	-0.14
872.273	-0.16
872.564	-0.15
872.855	-0.15
873.146	-0.15
873.437	-0.15
873.728	-0.17
874.019	-0.15
874.309	-0.17
874.6	-0.16
874.89	-0.16
875.181	-0.16
875.471	-0.16
875.762	-0.16
876.052	-0.16
876.342	-0.16
876.632	-0.16
876.922	-0.17
877.213	-0.16
877.503	-0.18
877.792	-0.16
878.082	-0.17
878.372	-0.15
878.662	-0.18
878.952	-0.17
879.241	-0.16
879.531	-0.16
879.82	-0.16
880.11	-0.15
880.399	-0.17
880.688	-0.14
880.978	-0.14
881.267	-0.14
