Data from 12-12-AQDScycling_Absorbance__878__00878.txt Node

Date: Tue Dec 12 14:36:14 EST 2023
User: kyuminlee
Spectrometer: FLMS00943
Trigger mode: 0
Integration Time (sec): 1.000000E-1
Scans to average: 1
Electric dark correction enabled: true
Nonlinearity correction enabled: false
Boxcar width: 0
XAxis mode: Wavelengths
Number of Pixels in Spectrum: 2048
>>>>>Begin Spectral Data<<<<<
179.651	-0
180.037	-0
180.424	-0
180.81	-0.36
181.197	0.01
181.583	-0
181.97	-0.29
182.356	-1.31
182.743	-0
183.129	0.36
183.515	0.13
183.901	-0
184.288	0.44
184.674	-0
185.06	-0
185.446	-0
185.832	-0.9
186.218	-0.04
186.604	0.95
186.99	-0
187.376	-0
187.762	0.34
188.148	0.72
188.534	-0.01
188.92	0.11
189.305	0.1
189.691	0.2
190.077	0.15
190.463	0.21
190.848	-0
191.234	0.02
191.619	0.05
192.005	0.14
192.391	0.17
192.776	0.19
193.161	0.19
193.547	0.12
193.932	0.04
194.318	0.01
194.703	0.17
195.088	0.14
195.473	0.21
195.859	0.16
196.244	0.2
196.629	0.23
197.014	0.06
197.399	0.27
197.784	0.2
198.169	0.1
198.554	0.2
198.939	-0.01
199.324	0.02
199.709	0.1
200.094	0.26
200.478	0.27
200.863	0.28
201.248	0.18
201.633	0.24
202.017	0.17
202.402	0.23
202.787	0.03
203.171	0.1
203.556	0.17
203.94	0.37
204.325	0.16
204.709	0.21
205.093	0.08
205.478	0.07
205.862	0.03
206.246	0.27
206.631	0.29
207.015	0.2
207.399	0.16
207.783	0.14
208.167	0.2
208.551	0.2
208.935	0.16
209.319	0.08
209.703	0.13
210.087	0.34
210.471	0.21
210.855	0.16
211.239	0.26
211.623	0.29
212.007	0.34
212.39	0.24
212.774	0.14
213.158	0.16
213.541	0.19
213.925	0.22
214.309	0.35
214.692	0.34
215.076	0.22
215.459	0.15
215.842	0.25
216.226	0.27
216.609	0.26
216.993	0.14
217.376	0.62
217.759	0.27
218.142	0.37
218.525	0.55
218.909	0.34
219.292	0.32
219.675	0.47
220.058	0.44
220.441	0.41
220.824	0.48
221.207	0.54
221.59	0.47
221.973	0.47
222.355	0.65
222.738	0.75
223.121	0.55
223.504	0.54
223.886	0.62
224.269	0.81
224.652	0.64
225.034	0.85
225.417	0.72
225.799	0.9
226.182	0.86
226.564	0.85
226.947	0.74
227.329	0.82
227.711	1
228.094	1.02
228.476	0.79
228.858	0.9
229.24	0.83
229.623	0.94
230.005	0.88
230.387	0.89
230.769	0.82
231.151	0.98
231.533	0.91
231.915	0.87
232.297	1.04
232.679	0.99
233.061	0.9
233.442	0.94
233.824	1.06
234.206	1.28
234.588	1.06
234.969	1.16
235.351	0.97
235.733	1.03
236.114	1.18
236.496	1.05
236.877	1.18
237.259	1.07
237.64	1.1
238.022	1.03
238.403	0.95
238.784	1.12
239.165	1.03
239.547	1.09
239.928	0.97
240.309	1
240.69	1.12
241.071	1.14
241.452	1.05
241.834	1.08
242.215	1.03
242.595	1.04
242.976	1.22
243.357	1.31
243.738	1.09
244.119	1.39
244.5	1.11
244.881	1.22
245.261	1.25
245.642	1.23
246.023	1.14
246.403	1.08
246.784	1.21
247.164	1.25
247.545	1.22
247.925	1.26
248.306	1.24
248.686	1.34
249.067	1.34
249.447	1.27
249.827	1.48
250.207	1.43
250.588	1.29
250.968	1.4
251.348	1.27
251.728	1.53
252.108	1.3
252.488	1.41
252.868	1.37
253.248	1.34
253.628	1.47
254.008	1.42
254.388	1.24
254.768	1.37
255.147	1.32
255.527	1.46
255.907	1.27
256.287	1.34
256.666	1.3
257.046	1.46
257.425	1.6
257.805	1.39
258.184	1.33
258.564	1.38
258.943	1.29
259.323	1.58
259.702	1.38
260.081	1.44
260.461	1.52
260.84	1.37
261.219	1.7
261.598	1.45
261.977	1.31
262.356	1.46
262.736	1.57
263.115	1.67
263.494	1.45
263.873	1.39
264.251	1.52
264.63	1.5
265.009	1.46
265.388	1.48
265.767	1.41
266.145	1.36
266.524	1.28
266.903	1.67
267.281	1.38
267.66	1.58
268.039	1.48
268.417	1.58
268.796	1.43
269.174	1.47
269.552	1.38
269.931	1.56
270.309	1.56
270.687	1.48
271.066	1.54
271.444	1.24
271.822	1.56
272.2	1.41
272.578	1.39
272.956	1.44
273.334	1.36
273.712	1.33
274.09	1.49
274.468	1.35
274.846	1.31
275.224	1.32
275.602	1.47
275.98	1.49
276.357	1.4
276.735	1.52
277.113	1.33
277.49	1.3
277.868	1.28
278.246	1.38
278.623	1.31
279.001	1.28
279.378	1.42
279.756	1.46
280.133	1.68
280.51	1.36
280.888	1.53
281.265	1.35
281.642	1.45
282.019	1.48
282.396	1.58
282.773	1.48
283.151	1.48
283.528	1.43
283.905	1.34
284.282	1.58
284.659	1.65
285.035	1.37
285.412	1.29
285.789	1.49
286.166	1.48
286.543	1.55
286.919	1.57
287.296	1.42
287.673	1.7
288.049	1.56
288.426	1.6
288.802	1.39
289.179	1.44
289.555	1.6
289.932	1.52
290.308	1.33
290.684	1.48
291.061	1.37
291.437	1.65
291.813	1.49
292.189	1.28
292.565	1.46
292.942	1.3
293.318	1.27
293.694	1.44
294.07	1.33
294.446	1.39
294.822	1.64
295.197	1.5
295.573	1.42
295.949	1.47
296.325	1.51
296.701	1.58
297.076	1.42
297.452	1.46
297.828	1.43
298.203	1.49
298.579	1.38
298.954	1.36
299.33	1.4
299.705	1.39
300.081	1.46
300.456	1.48
300.831	1.35
301.206	1.31
301.582	1.57
301.957	1.33
302.332	1.44
302.707	1.3
303.082	1.23
303.457	1.36
303.832	1.32
304.207	1.23
304.582	1.25
304.957	1.28
305.332	1.25
305.707	1.22
306.082	1.31
306.456	1.23
306.831	1.25
307.206	1.21
307.58	1.24
307.955	1.16
308.33	1.18
308.704	1.17
309.079	1.16
309.453	1.24
309.828	1.16
310.202	1.13
310.576	1.09
310.951	1.1
311.325	1.14
311.699	1.07
312.073	1.12
312.447	1.1
312.821	1.11
313.196	1.2
313.57	1.03
313.944	1.07
314.317	1.05
314.691	1.11
315.065	1.09
315.439	1.08
315.813	1.09
316.187	1.03
316.56	1.12
316.934	1.06
317.308	1.03
317.681	1.06
318.055	1.08
318.428	1.07
318.802	1.1
319.175	1.05
319.549	1.1
319.922	1
320.295	1.08
320.669	1.09
321.042	1.05
321.415	1.11
321.788	1.05
322.162	1.04
322.535	1.08
322.908	1.07
323.281	1.05
323.654	1.07
324.027	1.05
324.4	1.12
324.773	1.04
325.145	1.06
325.518	1.09
325.891	1.06
326.264	1.13
326.636	1.03
327.009	1.08
327.382	1.06
327.754	1.19
328.127	1.08
328.499	1.15
328.872	1.09
329.244	1.19
329.616	1.15
329.989	1.13
330.361	1.15
330.733	1.06
331.106	1.11
331.478	1.12
331.85	1.09
332.222	1.09
332.594	1.15
332.966	1.13
333.338	1.21
333.71	1.16
334.082	1.25
334.454	1.13
334.826	1.15
335.197	1.12
335.569	1.19
335.941	1.08
336.312	1.19
336.684	1.17
337.056	1.15
337.427	1.25
337.799	1.21
338.17	1.2
338.542	1.16
338.913	1.24
339.284	1.26
339.656	1.22
340.027	1.21
340.398	1.2
340.769	1.22
341.141	1.29
341.512	1.24
341.883	1.15
342.254	1.23
342.625	1.21
342.996	1.22
343.367	1.26
343.738	1.29
344.108	1.25
344.479	1.3
344.85	1.19
345.221	1.34
345.591	1.19
345.962	1.24
346.333	1.21
346.703	1.14
347.074	1.25
347.444	1.16
347.815	1.18
348.185	1.18
348.556	1.18
348.926	1.22
349.296	1.23
349.666	1.32
350.037	1.22
350.407	1.18
350.777	1.19
351.147	1.31
351.517	1.23
351.887	1.25
352.257	1.29
352.627	1.3
352.997	1.24
353.367	1.33
353.737	1.34
354.106	1.33
354.476	1.36
354.846	1.44
355.216	1.42
355.585	1.43
355.955	1.36
356.324	1.4
356.694	1.38
357.063	1.35
357.433	1.35
357.802	1.43
358.171	1.41
358.541	1.36
358.91	1.58
359.279	1.49
359.648	1.45
360.017	1.57
360.387	1.49
360.756	1.33
361.125	1.53
361.494	1.45
361.863	1.62
362.231	1.43
362.6	1.51
362.969	1.59
363.338	1.36
363.707	1.6
364.075	1.6
364.444	1.32
364.813	1.61
365.181	1.5
365.55	1.42
365.918	1.72
366.287	1.57
366.655	1.59
367.024	1.65
367.392	1.5
367.76	1.53
368.128	1.53
368.497	1.44
368.865	1.45
369.233	1.47
369.601	1.54
369.969	1.59
370.337	1.56
370.705	1.53
371.073	1.58
371.441	1.52
371.809	1.48
372.177	1.5
372.544	1.58
372.912	1.59
373.28	1.5
373.647	1.53
374.015	1.64
374.383	1.88
374.75	1.75
375.118	1.61
375.485	1.73
375.853	1.66
376.22	1.53
376.587	1.56
376.955	1.66
377.322	1.65
377.689	1.55
378.056	1.47
378.423	1.45
378.79	1.59
379.157	1.51
379.524	1.6
379.891	1.49
380.258	1.62
380.625	1.57
380.992	1.53
381.359	1.6
381.726	1.77
382.092	1.58
382.459	1.6
382.826	1.6
383.192	1.72
383.559	1.45
383.925	1.7
384.292	1.46
384.658	1.69
385.025	1.55
385.391	1.76
385.757	1.57
386.123	1.51
386.49	1.62
386.856	1.57
387.222	1.64
387.588	1.5
387.954	1.61
388.32	1.72
388.686	1.69
389.052	1.63
389.418	1.74
389.784	1.64
390.15	1.52
390.515	1.38
390.881	1.6
391.247	1.43
391.613	1.6
391.978	1.47
392.344	1.69
392.709	1.6
393.075	1.62
393.44	1.59
393.806	1.58
394.171	1.52
394.536	1.63
394.902	1.75
395.267	1.5
395.632	1.44
395.997	1.47
396.362	1.48
396.727	1.57
397.092	1.56
397.457	1.67
397.822	1.53
398.187	1.56
398.552	1.56
398.917	1.84
399.282	1.4
399.646	1.63
400.011	1.7
400.376	1.45
400.74	1.5
401.105	1.55
401.47	1.6
401.834	1.68
402.199	1.43
402.563	1.69
402.927	1.44
403.292	1.72
403.656	1.57
404.02	1.62
404.384	1.79
404.749	1.77
405.113	1.61
405.477	1.67
405.841	1.48
406.205	1.59
406.569	1.41
406.933	1.64
407.296	1.49
407.66	1.64
408.024	1.49
408.388	1.67
408.752	1.57
409.115	1.55
409.479	1.54
409.842	1.6
410.206	1.43
410.569	1.6
410.933	1.62
411.296	1.44
411.66	1.5
412.023	1.51
412.386	1.66
412.749	1.46
413.113	1.59
413.476	1.47
413.839	1.48
414.202	1.51
414.565	1.47
414.928	1.4
415.291	1.32
415.654	1.44
416.017	1.61
416.38	1.39
416.742	1.37
417.105	1.44
417.468	1.39
417.83	1.5
418.193	1.5
418.556	1.38
418.918	1.53
419.281	1.58
419.643	1.46
420.005	1.51
420.368	1.46
420.73	1.48
421.092	1.5
421.455	1.45
421.817	1.35
422.179	1.51
422.541	1.58
422.903	1.59
423.265	1.54
423.627	1.51
423.989	1.44
424.351	1.41
424.713	1.47
425.075	1.51
425.436	1.42
425.798	1.42
426.16	1.66
426.521	1.44
426.883	1.48
427.245	1.57
427.606	1.41
427.967	1.44
428.329	1.54
428.69	1.46
429.052	1.4
429.413	1.56
429.774	1.49
430.135	1.49
430.497	1.46
430.858	1.47
431.219	1.45
431.58	1.4
431.941	1.34
432.302	1.43
432.663	1.51
433.024	1.38
433.384	1.51
433.745	1.43
434.106	1.47
434.467	1.41
434.827	1.33
435.188	1.45
435.548	1.49
435.909	1.39
436.269	1.48
436.63	1.46
436.99	1.42
437.351	1.36
437.711	1.51
438.071	1.41
438.431	1.33
438.792	1.39
439.152	1.38
439.512	1.3
439.872	1.36
440.232	1.37
440.592	1.43
440.952	1.32
441.312	1.3
441.671	1.3
442.031	1.34
442.391	1.34
442.751	1.36
443.11	1.39
443.47	1.29
443.83	1.26
444.189	1.26
444.549	1.26
444.908	1.28
445.267	1.23
445.627	1.27
445.986	1.28
446.345	1.25
446.705	1.25
447.064	1.28
447.423	1.2
447.782	1.25
448.141	1.23
448.5	1.19
448.859	1.19
449.218	1.2
449.577	1.22
449.936	1.21
450.295	1.21
450.653	1.15
451.012	1.18
451.371	1.18
451.729	1.17
452.088	1.16
452.447	1.15
452.805	1.18
453.163	1.12
453.522	1.15
453.88	1.1
454.239	1.12
454.597	1.07
454.955	1.07
455.313	1.09
455.671	1.08
456.029	1.08
456.388	1.04
456.746	1.03
457.104	1.01
457.461	1.01
457.819	1
458.177	0.97
458.535	0.97
458.893	0.96
459.25	0.94
459.608	0.93
459.966	0.92
460.323	0.91
460.681	0.89
461.038	0.88
461.396	0.89
461.753	0.87
462.111	0.86
462.468	0.85
462.825	0.82
463.182	0.82
463.54	0.8
463.897	0.8
464.254	0.8
464.611	0.77
464.968	0.77
465.325	0.77
465.682	0.74
466.039	0.73
466.395	0.72
466.752	0.72
467.109	0.71
467.466	0.71
467.822	0.7
468.179	0.69
468.535	0.66
468.892	0.67
469.248	0.64
469.605	0.64
469.961	0.63
470.318	0.63
470.674	0.62
471.03	0.61
471.386	0.59
471.743	0.58
472.099	0.56
472.455	0.56
472.811	0.56
473.167	0.55
473.523	0.53
473.879	0.53
474.235	0.52
474.59	0.51
474.946	0.51
475.302	0.5
475.657	0.49
476.013	0.48
476.369	0.47
476.724	0.48
477.08	0.47
477.435	0.46
477.791	0.45
478.146	0.44
478.501	0.44
478.857	0.43
479.212	0.42
479.567	0.41
479.922	0.4
480.277	0.39
480.632	0.38
480.987	0.38
481.342	0.37
481.697	0.36
482.052	0.36
482.407	0.35
482.762	0.34
483.116	0.34
483.471	0.33
483.826	0.32
484.18	0.32
484.535	0.32
484.89	0.31
485.244	0.31
485.598	0.3
485.953	0.3
486.307	0.29
486.661	0.29
487.016	0.28
487.37	0.29
487.724	0.27
488.078	0.27
488.432	0.27
488.786	0.26
489.14	0.26
489.494	0.25
489.848	0.25
490.202	0.24
490.556	0.25
490.91	0.24
491.263	0.24
491.617	0.24
491.971	0.23
492.324	0.23
492.678	0.23
493.031	0.23
493.385	0.22
493.738	0.22
494.091	0.21
494.445	0.21
494.798	0.21
495.151	0.21
495.504	0.2
495.857	0.2
496.21	0.2
496.564	0.2
496.916	0.2
497.269	0.19
497.622	0.2
497.975	0.19
498.328	0.19
498.681	0.18
499.033	0.18
499.386	0.18
499.739	0.17
500.091	0.17
500.444	0.17
500.796	0.17
501.149	0.16
501.501	0.16
501.854	0.17
502.206	0.17
502.558	0.16
502.91	0.17
503.263	0.16
503.615	0.16
503.967	0.16
504.319	0.16
504.671	0.16
505.023	0.15
505.375	0.15
505.726	0.15
506.078	0.16
506.43	0.15
506.782	0.15
507.133	0.15
507.485	0.16
507.837	0.16
508.188	0.15
508.54	0.15
508.891	0.16
509.243	0.14
509.594	0.15
509.945	0.15
510.296	0.14
510.648	0.15
510.999	0.14
511.35	0.14
511.701	0.14
512.052	0.14
512.403	0.15
512.754	0.14
513.105	0.13
513.456	0.14
513.807	0.14
514.157	0.14
514.508	0.14
514.859	0.13
515.209	0.14
515.56	0.14
515.91	0.13
516.261	0.14
516.611	0.13
516.962	0.14
517.312	0.13
517.662	0.14
518.013	0.14
518.363	0.14
518.713	0.14
519.063	0.14
519.413	0.14
519.763	0.14
520.113	0.14
520.463	0.14
520.813	0.14
521.163	0.14
521.512	0.14
521.862	0.14
522.212	0.14
522.562	0.14
522.911	0.14
523.261	0.13
523.61	0.14
523.96	0.14
524.309	0.14
524.658	0.14
525.008	0.13
525.357	0.14
525.706	0.14
526.056	0.13
526.405	0.14
526.754	0.13
527.103	0.13
527.452	0.14
527.801	0.13
528.15	0.13
528.499	0.14
528.847	0.14
529.196	0.15
529.545	0.14
529.893	0.15
530.242	0.15
530.591	0.15
530.939	0.15
531.288	0.15
531.636	0.15
531.985	0.14
532.333	0.14
532.681	0.14
533.029	0.15
533.378	0.14
533.726	0.14
534.074	0.15
534.422	0.14
534.77	0.15
535.118	0.13
535.466	0.14
535.814	0.14
536.162	0.14
536.509	0.14
536.857	0.14
537.205	0.15
537.552	0.14
537.9	0.15
538.248	0.14
538.595	0.15
538.943	0.15
539.29	0.14
539.637	0.15
539.985	0.14
540.332	0.14
540.679	0.14
541.026	0.14
541.373	0.15
541.721	0.14
542.068	0.14
542.415	0.14
542.762	0.14
543.108	0.14
543.455	0.14
543.802	0.14
544.149	0.13
544.496	0.14
544.842	0.14
545.189	0.13
545.535	0.13
545.882	0.13
546.228	0.13
546.575	0.13
546.921	0.13
547.267	0.14
547.614	0.13
547.96	0.13
548.306	0.13
548.652	0.13
548.998	0.14
549.344	0.13
549.69	0.13
550.036	0.13
550.382	0.14
550.728	0.13
551.074	0.14
551.42	0.14
551.765	0.13
552.111	0.14
552.457	0.15
552.802	0.13
553.148	0.13
553.493	0.14
553.839	0.14
554.184	0.15
554.529	0.13
554.875	0.14
555.22	0.14
555.565	0.13
555.91	0.14
556.255	0.15
556.6	0.15
556.945	0.13
557.29	0.14
557.635	0.15
557.98	0.14
558.325	0.14
558.67	0.14
559.014	0.14
559.359	0.14
559.704	0.14
560.048	0.13
560.393	0.14
560.737	0.13
561.082	0.14
561.426	0.13
561.77	0.14
562.115	0.13
562.459	0.13
562.803	0.13
563.147	0.14
563.491	0.14
563.835	0.14
564.179	0.14
564.523	0.14
564.867	0.13
565.211	0.14
565.555	0.14
565.899	0.15
566.242	0.14
566.586	0.13
566.93	0.14
567.273	0.15
567.617	0.15
567.96	0.15
568.304	0.15
568.647	0.14
568.99	0.15
569.334	0.16
569.677	0.14
570.02	0.15
570.363	0.14
570.706	0.15
571.049	0.14
571.392	0.15
571.735	0.15
572.078	0.14
572.421	0.15
572.764	0.15
573.106	0.15
573.449	0.14
573.792	0.14
574.134	0.14
574.477	0.15
574.819	0.14
575.162	0.14
575.504	0.14
575.847	0.14
576.189	0.14
576.531	0.14
576.873	0.14
577.215	0.14
577.558	0.14
577.9	0.13
578.242	0.14
578.584	0.14
578.926	0.14
579.267	0.13
579.609	0.14
579.951	0.14
580.293	0.14
580.634	0.15
580.976	0.15
581.318	0.14
581.659	0.13
582.001	0.14
582.342	0.14
582.683	0.14
583.025	0.14
583.366	0.14
583.707	0.14
584.049	0.14
584.39	0.15
584.731	0.13
585.072	0.13
585.413	0.14
585.754	0.14
586.095	0.14
586.435	0.14
586.776	0.14
587.117	0.14
587.458	0.14
587.798	0.14
588.139	0.14
588.48	0.13
588.82	0.13
589.161	0.14
589.501	0.13
589.841	0.14
590.182	0.13
590.522	0.13
590.862	0.14
591.202	0.14
591.542	0.13
591.882	0.14
592.222	0.13
592.562	0.13
592.902	0.14
593.242	0.14
593.582	0.14
593.922	0.13
594.261	0.14
594.601	0.14
594.941	0.13
595.28	0.13
595.62	0.14
595.959	0.13
596.299	0.13
596.638	0.13
596.977	0.13
597.317	0.14
597.656	0.14
597.995	0.14
598.334	0.14
598.673	0.14
599.012	0.13
599.351	0.15
599.69	0.14
600.029	0.14
600.368	0.15
600.707	0.15
601.046	0.14
601.384	0.15
601.723	0.14
602.061	0.14
602.4	0.14
602.738	0.14
603.077	0.14
603.415	0.14
603.754	0.14
604.092	0.13
604.43	0.13
604.768	0.14
605.107	0.14
605.445	0.13
605.783	0.13
606.121	0.13
606.459	0.14
606.796	0.13
607.134	0.13
607.472	0.13
607.81	0.14
608.148	0.14
608.485	0.13
608.823	0.14
609.16	0.12
609.498	0.13
609.835	0.13
610.173	0.13
610.51	0.14
610.847	0.14
611.185	0.14
611.522	0.14
611.859	0.14
612.196	0.14
612.533	0.14
612.87	0.14
613.207	0.15
613.544	0.13
613.881	0.15
614.217	0.14
614.554	0.14
614.891	0.15
615.228	0.14
615.564	0.14
615.901	0.14
616.237	0.15
616.574	0.14
616.91	0.15
617.246	0.14
617.583	0.14
617.919	0.14
618.255	0.15
618.591	0.14
618.927	0.14
619.263	0.14
619.599	0.14
619.935	0.14
620.271	0.15
620.607	0.15
620.943	0.14
621.279	0.14
621.614	0.14
621.95	0.15
622.286	0.14
622.621	0.14
622.957	0.14
623.292	0.14
623.627	0.14
623.963	0.14
624.298	0.13
624.633	0.13
624.968	0.13
625.304	0.13
625.639	0.13
625.974	0.14
626.309	0.13
626.644	0.13
626.979	0.14
627.313	0.14
627.648	0.13
627.983	0.14
628.318	0.13
628.652	0.13
628.987	0.13
629.321	0.13
629.656	0.13
629.99	0.12
630.325	0.13
630.659	0.12
630.993	0.12
631.327	0.12
631.662	0.12
631.996	0.12
632.33	0.12
632.664	0.12
632.998	0.11
633.332	0.12
633.666	0.12
633.999	0.12
634.333	0.11
634.667	0.11
635.001	0.11
635.334	0.11
635.668	0.11
636.001	0.11
636.335	0.12
636.668	0.11
637.001	0.11
637.335	0.11
637.668	0.12
638.001	0.11
638.334	0.11
638.668	0.11
639.001	0.12
639.334	0.11
639.667	0.11
639.999	0.11
640.332	0.11
640.665	0.12
640.998	0.12
641.331	0.12
641.663	0.11
641.996	0.12
642.328	0.12
642.661	0.11
642.993	0.12
643.326	0.12
643.658	0.11
643.99	0.11
644.323	0.12
644.655	0.12
644.987	0.12
645.319	0.13
645.651	0.13
645.983	0.12
646.315	0.11
646.647	0.13
646.979	0.13
647.31	0.12
647.642	0.12
647.974	0.12
648.305	0.13
648.637	0.13
648.968	0.12
649.3	0.12
649.631	0.12
649.963	0.12
650.294	0.12
650.625	0.11
650.957	0.12
651.288	0.13
651.619	0.12
651.95	0.12
652.281	0.12
652.612	0.12
652.943	0.12
653.274	0.13
653.604	0.11
653.935	0.12
654.266	0.12
654.596	0.11
654.927	0.11
655.258	0.12
655.588	0.13
655.918	0.12
656.249	0.1
656.579	0.11
656.909	0.11
657.24	0.11
657.57	0.12
657.9	0.11
658.23	0.11
658.56	0.11
658.89	0.12
659.22	0.11
659.55	0.11
659.88	0.12
660.209	0.11
660.539	0.12
660.869	0.12
661.198	0.11
661.528	0.12
661.857	0.12
662.187	0.12
662.516	0.12
662.846	0.12
663.175	0.11
663.504	0.11
663.833	0.11
664.163	0.12
664.492	0.1
664.821	0.11
665.15	0.11
665.479	0.11
665.807	0.1
666.136	0.11
666.465	0.11
666.794	0.11
667.122	0.11
667.451	0.11
667.78	0.11
668.108	0.12
668.437	0.11
668.765	0.11
669.093	0.12
669.422	0.12
669.75	0.11
670.078	0.11
670.406	0.12
670.734	0.12
671.062	0.11
671.39	0.11
671.718	0.12
672.046	0.11
672.374	0.11
672.702	0.11
673.029	0.11
673.357	0.12
673.685	0.12
674.012	0.11
674.34	0.11
674.667	0.12
674.995	0.11
675.322	0.11
675.649	0.11
675.977	0.11
676.304	0.11
676.631	0.11
676.958	0.11
677.285	0.1
677.612	0.1
677.939	0.11
678.266	0.11
678.593	0.1
678.92	0.11
679.246	0.1
679.573	0.11
679.9	0.11
680.226	0.1
680.553	0.1
680.879	0.11
681.206	0.11
681.532	0.1
681.858	0.11
682.184	0.1
682.511	0.1
682.837	0.1
683.163	0.11
683.489	0.11
683.815	0.11
684.141	0.11
684.467	0.11
684.793	0.1
685.118	0.11
685.444	0.11
685.77	0.1
686.095	0.1
686.421	0.11
686.746	0.11
687.072	0.1
687.397	0.1
687.723	0.11
688.048	0.1
688.373	0.1
688.698	0.1
689.023	0.1
689.349	0.1
689.674	0.09
689.999	0.09
690.323	0.09
690.648	0.09
690.973	0.09
691.298	0.09
691.623	0.09
691.947	0.09
692.272	0.09
692.596	0.09
692.921	0.1
693.245	0.09
693.57	0.1
693.894	0.1
694.218	0.1
694.543	0.09
694.867	0.1
695.191	0.09
695.515	0.1
695.839	0.1
696.163	0.09
696.487	0.1
696.811	0.09
697.135	0.1
697.458	0.1
697.782	0.09
698.106	0.1
698.429	0.09
698.753	0.1
699.076	0.1
699.4	0.1
699.723	0.1
700.046	0.09
700.37	0.1
700.693	0.1
701.016	0.09
701.339	0.1
701.662	0.1
701.985	0.09
702.308	0.08
702.631	0.09
702.954	0.09
703.277	0.09
703.599	0.09
703.922	0.08
704.245	0.08
704.567	0.08
704.89	0.09
705.212	0.08
705.535	0.08
705.857	0.08
706.179	0.08
706.502	0.08
706.824	0.07
707.146	0.08
707.468	0.08
707.79	0.08
708.112	0.09
708.434	0.08
708.756	0.09
709.078	0.08
709.399	0.08
709.721	0.07
710.043	0.09
710.364	0.08
710.686	0.09
711.007	0.08
711.329	0.09
711.65	0.09
711.972	0.09
712.293	0.09
712.614	0.09
712.935	0.09
713.256	0.09
713.577	0.09
713.898	0.09
714.219	0.08
714.54	0.09
714.861	0.08
715.182	0.08
715.503	0.08
715.823	0.08
716.144	0.08
716.464	0.08
716.785	0.08
717.105	0.08
717.426	0.09
717.746	0.08
718.066	0.08
718.387	0.08
718.707	0.07
719.027	0.08
719.347	0.07
719.667	0.08
719.987	0.07
720.307	0.07
720.627	0.07
720.947	0.08
721.266	0.07
721.586	0.06
721.906	0.07
722.225	0.07
722.545	0.07
722.864	0.08
723.184	0.07
723.503	0.08
723.823	0.08
724.142	0.07
724.461	0.07
724.78	0.08
725.099	0.08
725.418	0.08
725.737	0.07
726.056	0.08
726.375	0.08
726.694	0.07
727.013	0.08
727.331	0.07
727.65	0.07
727.969	0.07
728.287	0.07
728.606	0.07
728.924	0.07
729.242	0.07
729.561	0.08
729.879	0.07
730.197	0.08
730.515	0.07
730.834	0.07
731.152	0.07
731.47	0.07
731.788	0.07
732.105	0.07
732.423	0.07
732.741	0.07
733.059	0.07
733.376	0.08
733.694	0.06
734.012	0.07
734.329	0.08
734.647	0.06
734.964	0.09
735.281	0.08
735.599	0.07
735.916	0.08
736.233	0.08
736.55	0.08
736.867	0.08
737.184	0.09
737.501	0.08
737.818	0.08
738.135	0.08
738.452	0.08
738.768	0.09
739.085	0.08
739.402	0.06
739.718	0.08
740.035	0.07
740.351	0.08
740.668	0.08
740.984	0.08
741.3	0.07
741.617	0.08
741.933	0.07
742.249	0.08
742.565	0.07
742.881	0.08
743.197	0.08
743.513	0.06
743.829	0.06
744.144	0.07
744.46	0.07
744.776	0.07
745.091	0.07
745.407	0.07
745.722	0.07
746.038	0.06
746.353	0.06
746.669	0.08
746.984	0.06
747.299	0.06
747.614	0.07
747.93	0.07
748.245	0.07
748.56	0.07
748.875	0.07
749.189	0.06
749.504	0.06
749.819	0.07
750.134	0.06
750.448	0.06
750.763	0.07
751.078	0.05
751.392	0.06
751.707	0.07
752.021	0.07
752.335	0.07
752.65	0.07
752.964	0.06
753.278	0.07
753.592	0.07
753.906	0.06
754.22	0.06
754.534	0.06
754.848	0.06
755.162	0.07
755.476	0.06
755.789	0.07
756.103	0.06
756.417	0.07
756.73	0.07
757.044	0.07
757.357	0.06
757.671	0.06
757.984	0.06
758.297	0.07
758.61	0.07
758.924	0.06
759.237	0.06
759.55	0.06
759.863	0.06
760.176	0.06
760.488	0.06
760.801	0.06
761.114	0.05
761.427	0.05
761.739	0.06
762.052	0.06
762.365	0.05
762.677	0.06
762.99	0.05
763.302	0.06
763.614	0.06
763.926	0.06
764.239	0.06
764.551	0.06
764.863	0.06
765.175	0.06
765.487	0.07
765.799	0.05
766.111	0.05
766.423	0.06
766.734	0.06
767.046	0.05
767.358	0.06
767.669	0.06
767.981	0.06
768.292	0.06
768.604	0.05
768.915	0.05
769.226	0.06
769.537	0.04
769.849	0.06
770.16	0.06
770.471	0.05
770.782	0.05
771.093	0.05
771.404	0.05
771.715	0.04
772.025	0.06
772.336	0.05
772.647	0.04
772.957	0.05
773.268	0.05
773.578	0.05
773.889	0.06
774.199	0.06
774.51	0.06
774.82	0.06
775.13	0.06
775.44	0.06
775.75	0.06
776.06	0.06
776.37	0.05
776.68	0.06
776.99	0.06
777.3	0.06
777.61	0.07
777.92	0.07
778.229	0.07
778.539	0.06
778.848	0.06
779.158	0.07
779.467	0.07
779.777	0.06
780.086	0.07
780.395	0.05
780.704	0.05
781.013	0.05
781.323	0.05
781.632	0.06
781.941	0.06
782.249	0.06
782.558	0.05
782.867	0.06
783.176	0.05
783.485	0.06
783.793	0.06
784.102	0.06
784.41	0.06
784.719	0.05
785.027	0.06
785.335	0.06
785.644	0.06
785.952	0.05
786.26	0.06
786.568	0.05
786.876	0.05
787.184	0.05
787.492	0.05
787.8	0.06
788.108	0.06
788.416	0.06
788.723	0.06
789.031	0.05
789.338	0.06
789.646	0.05
789.953	0.06
790.261	0.06
790.568	0.06
790.876	0.06
791.183	0.06
791.49	0.05
791.797	0.06
792.104	0.05
792.411	0.05
792.718	0.05
793.025	0.06
793.332	0.05
793.639	0.06
793.945	0.06
794.252	0.06
794.559	0.05
794.865	0.06
795.172	0.07
795.478	0.05
795.784	0.06
796.091	0.05
796.397	0.07
796.703	0.06
797.009	0.06
797.315	0.06
797.622	0.06
797.927	0.06
798.233	0.06
798.539	0.07
798.845	0.06
799.151	0.06
799.456	0.06
799.762	0.06
800.068	0.06
800.373	0.07
800.679	0.06
800.984	0.07
801.289	0.06
801.595	0.05
801.9	0.06
802.205	0.05
802.51	0.06
802.815	0.07
803.12	0.06
803.425	0.06
803.73	0.06
804.035	0.06
804.339	0.05
804.644	0.05
804.949	0.07
805.253	0.06
805.558	0.05
805.862	0.06
806.167	0.06
806.471	0.06
806.775	0.05
807.08	0.05
807.384	0.06
807.688	0.05
807.992	0.06
808.296	0.06
808.6	0.06
808.904	0.06
809.207	0.06
809.511	0.07
809.815	0.07
810.119	0.06
810.422	0.07
810.726	0.07
811.029	0.07
811.332	0.07
811.636	0.08
811.939	0.06
812.242	0.06
812.546	0.06
812.849	0.06
813.152	0.06
813.455	0.07
813.758	0.07
814.06	0.07
814.363	0.07
814.666	0.07
814.969	0.06
815.271	0.06
815.574	0.06
815.877	0.06
816.179	0.06
816.481	0.06
816.784	0.05
817.086	0.05
817.388	0.04
817.69	0.04
817.993	0.04
818.295	0.04
818.597	0.06
818.899	0.04
819.2	0.04
819.502	0.04
819.804	0.05
820.106	0.05
820.407	0.04
820.709	0.05
821.01	0.05
821.312	0.05
821.613	0.04
821.915	0.04
822.216	0.04
822.517	0.03
822.818	0.04
823.119	0.04
823.42	0.04
823.721	0.03
824.022	0.03
824.323	0.04
824.624	0.03
824.925	0.04
825.226	0.05
825.526	0.04
825.827	0.04
826.127	0.04
826.428	0.04
826.728	0.04
827.028	0.03
827.329	0.04
827.629	0.02
827.929	0.04
828.229	0.04
828.529	0.04
828.829	0.04
829.129	0.03
829.429	0.04
829.729	0.04
830.029	0.03
830.328	0.04
830.628	0.03
830.927	0.02
831.227	0.03
831.526	0.03
831.826	0.03
832.125	0.03
832.424	0.03
832.724	0.03
833.023	0.03
833.322	0.03
833.621	0.02
833.92	0.02
834.219	0.02
834.518	0.03
834.816	0.02
835.115	0.02
835.414	0.03
835.712	0.02
836.011	0.02
836.309	0.02
836.608	0.01
836.906	0.01
837.205	0.01
837.503	0.01
837.801	-0
838.099	-0
838.397	-0.01
838.695	0
838.993	-0
839.291	-0.01
839.589	-0.01
839.887	-0
840.184	-0.01
840.482	-0.01
840.78	-0.01
841.077	-0.01
841.375	-0.01
841.672	-0.01
841.969	-0.02
842.267	-0.01
842.564	-0.01
842.861	-0.01
843.158	-0.01
843.455	-0.02
843.752	-0.02
844.049	-0.01
844.346	-0.02
844.643	-0.03
844.94	-0.02
845.236	-0.01
845.533	-0.02
845.83	-0.01
846.126	-0.02
846.423	-0.02
846.719	-0.03
847.015	-0.02
847.312	-0.03
847.608	-0.04
847.904	-0.03
848.2	-0.03
848.496	-0.03
848.792	-0.03
849.088	-0.02
849.384	-0.03
849.68	-0.05
849.975	-0.04
850.271	-0.05
850.567	-0.05
850.862	-0.05
851.158	-0.06
851.453	-0.05
851.748	-0.06
852.044	-0.05
852.339	-0.05
852.634	-0.07
852.929	-0.05
853.224	-0.06
853.519	-0.06
853.814	-0.05
854.109	-0.06
854.404	-0.06
854.699	-0.06
854.994	-0.06
855.288	-0.05
855.583	-0.04
855.877	-0.06
856.172	-0.06
856.466	-0.06
856.76	-0.06
857.055	-0.06
857.349	-0.07
857.643	-0.07
857.937	-0.08
858.231	-0.07
858.525	-0.08
858.819	-0.08
859.113	-0.08
859.407	-0.09
859.701	-0.09
859.994	-0.09
860.288	-0.09
860.581	-0.1
860.875	-0.1
861.168	-0.11
861.462	-0.1
861.755	-0.09
862.048	-0.11
862.341	-0.1
862.634	-0.1
862.928	-0.11
863.221	-0.1
863.513	-0.11
863.806	-0.1
864.099	-0.11
864.392	-0.11
864.685	-0.11
864.977	-0.1
865.27	-0.12
865.562	-0.11
865.855	-0.1
866.147	-0.12
866.44	-0.1
866.732	-0.11
867.024	-0.12
867.316	-0.12
867.608	-0.13
867.9	-0.12
868.192	-0.12
868.484	-0.13
868.776	-0.13
869.068	-0.12
869.359	-0.13
869.651	-0.12
869.943	-0.14
870.234	-0.14
870.526	-0.14
870.817	-0.15
871.108	-0.13
871.4	-0.14
871.691	-0.14
871.982	-0.14
872.273	-0.15
872.564	-0.14
872.855	-0.16
873.146	-0.15
873.437	-0.15
873.728	-0.17
874.019	-0.15
874.309	-0.15
874.6	-0.15
874.89	-0.15
875.181	-0.17
875.471	-0.16
875.762	-0.16
876.052	-0.15
876.342	-0.14
876.632	-0.15
876.922	-0.16
877.213	-0.16
877.503	-0.18
877.792	-0.16
878.082	-0.18
878.372	-0.17
878.662	-0.18
878.952	-0.18
879.241	-0.17
879.531	-0.17
879.82	-0.17
880.11	-0.17
880.399	-0.17
880.688	-0.15
880.978	-0.15
881.267	-0.15
