Data from 12-12-AQDScycling_Absorbance__680__00680.txt Node

Date: Tue Dec 12 13:46:44 EST 2023
User: kyuminlee
Spectrometer: FLMS00943
Trigger mode: 0
Integration Time (sec): 1.000000E-1
Scans to average: 1
Electric dark correction enabled: true
Nonlinearity correction enabled: false
Boxcar width: 0
XAxis mode: Wavelengths
Number of Pixels in Spectrum: 2048
>>>>>Begin Spectral Data<<<<<
179.651	-0.49
180.037	-0.49
180.424	-0.49
180.81	-0.38
181.197	0.2
181.583	-0
181.97	0.23
182.356	-0
182.743	-0
183.129	-0
183.515	1.27
183.901	-0
184.288	0.52
184.674	-0
185.06	-0
185.446	-0
185.832	-0
186.218	0.28
186.604	0.1
186.99	-0
187.376	-0
187.762	-0.32
188.148	0.62
188.534	0.39
188.92	0.04
189.305	0.09
189.691	0.25
190.077	0.17
190.463	0.06
190.848	0.14
191.234	-0.01
191.619	0.06
192.005	0.13
192.391	0.15
192.776	0.06
193.161	0.16
193.547	0.19
193.932	0.06
194.318	0.06
194.703	0.19
195.088	0.44
195.473	0.27
195.859	0.18
196.244	0.29
196.629	0.03
197.014	0.2
197.399	0.21
197.784	0.07
198.169	0.15
198.554	0.29
198.939	0.14
199.324	0.14
199.709	0.08
200.094	0.15
200.478	0.16
200.863	0.23
201.248	0.25
201.633	0.23
202.017	0.15
202.402	0.19
202.787	0.13
203.171	0.21
203.556	0.32
203.94	0.21
204.325	0.27
204.709	0.16
205.093	0.18
205.478	0.1
205.862	0.21
206.246	0.25
206.631	0.28
207.015	0.1
207.399	0.21
207.783	0.08
208.167	0.22
208.551	0.2
208.935	0.26
209.319	0.29
209.703	0.13
210.087	0.15
210.471	0.15
210.855	0.19
211.239	0.2
211.623	0.38
212.007	0.3
212.39	0.31
212.774	0.16
213.158	0.12
213.541	0.15
213.925	0.22
214.309	0.5
214.692	0.3
215.076	0.26
215.459	0.14
215.842	0.14
216.226	0.29
216.609	0.43
216.993	0.19
217.376	0.64
217.759	0.24
218.142	0.43
218.525	0.5
218.909	0.4
219.292	0.42
219.675	0.38
220.058	0.69
220.441	0.59
220.824	0.47
221.207	0.54
221.59	0.5
221.973	0.45
222.355	0.6
222.738	0.74
223.121	0.61
223.504	0.54
223.886	0.63
224.269	0.71
224.652	0.69
225.034	0.78
225.417	0.75
225.799	0.95
226.182	0.93
226.564	0.83
226.947	0.71
227.329	0.75
227.711	1.04
228.094	0.85
228.476	0.99
228.858	0.86
229.24	0.82
229.623	0.89
230.005	0.83
230.387	0.87
230.769	0.77
231.151	0.98
231.533	0.92
231.915	0.8
232.297	0.96
232.679	1.07
233.061	1.06
233.442	1.12
233.824	1.02
234.206	1.1
234.588	0.97
234.969	1.09
235.351	1.09
235.733	1.01
236.114	1.15
236.496	1.13
236.877	1.26
237.259	1.15
237.64	1.04
238.022	0.98
238.403	1.05
238.784	1
239.165	1.05
239.547	1.13
239.928	1.19
240.309	1.14
240.69	1.14
241.071	1.16
241.452	1.08
241.834	1.15
242.215	1.1
242.595	1.05
242.976	1.25
243.357	1.2
243.738	1.04
244.119	1.31
244.5	1.11
244.881	1.18
245.261	1.2
245.642	1.13
246.023	1.31
246.403	1.16
246.784	1.28
247.164	1.34
247.545	1.32
247.925	1.35
248.306	1.35
248.686	1.47
249.067	1.28
249.447	1.2
249.827	1.77
250.207	1.47
250.588	1.2
250.968	1.57
251.348	1.27
251.728	1.46
252.108	1.36
252.488	1.39
252.868	1.5
253.248	1.35
253.628	1.47
254.008	1.45
254.388	1.43
254.768	1.44
255.147	1.35
255.527	1.51
255.907	1.42
256.287	1.3
256.666	1.34
257.046	1.68
257.425	1.61
257.805	1.28
258.184	1.49
258.564	1.36
258.943	1.41
259.323	1.5
259.702	1.68
260.081	1.35
260.461	1.52
260.84	1.49
261.219	1.67
261.598	1.48
261.977	1.5
262.356	1.55
262.736	1.44
263.115	1.69
263.494	1.58
263.873	1.45
264.251	1.58
264.63	1.5
265.009	1.56
265.388	1.46
265.767	1.44
266.145	1.41
266.524	1.45
266.903	1.49
267.281	1.39
267.66	1.44
268.039	1.51
268.417	1.38
268.796	1.38
269.174	1.48
269.552	1.39
269.931	1.4
270.309	1.54
270.687	1.64
271.066	1.64
271.444	1.46
271.822	1.46
272.2	1.45
272.578	1.56
272.956	1.51
273.334	1.41
273.712	1.61
274.09	1.44
274.468	1.46
274.846	1.29
275.224	1.51
275.602	1.48
275.98	1.72
276.357	1.45
276.735	1.6
277.113	1.48
277.49	1.31
277.868	1.34
278.246	1.5
278.623	1.36
279.001	1.31
279.378	1.56
279.756	1.57
280.133	1.45
280.51	1.52
280.888	1.41
281.265	1.38
281.642	1.49
282.019	1.57
282.396	1.59
282.773	1.5
283.151	1.55
283.528	1.46
283.905	1.42
284.282	1.76
284.659	1.76
285.035	1.34
285.412	1.42
285.789	1.45
286.166	1.5
286.543	1.44
286.919	1.41
287.296	1.34
287.673	1.7
288.049	1.47
288.426	1.59
288.802	1.51
289.179	1.48
289.555	1.61
289.932	1.47
290.308	1.41
290.684	1.35
291.061	1.4
291.437	1.69
291.813	1.44
292.189	1.37
292.565	1.44
292.942	1.37
293.318	1.34
293.694	1.44
294.07	1.37
294.446	1.58
294.822	1.71
295.197	1.55
295.573	1.53
295.949	1.56
296.325	1.52
296.701	1.6
297.076	1.39
297.452	1.7
297.828	1.45
298.203	1.6
298.579	1.55
298.954	1.61
299.33	1.49
299.705	1.43
300.081	1.54
300.456	1.5
300.831	1.46
301.206	1.41
301.582	1.51
301.957	1.44
302.332	1.76
302.707	1.42
303.082	1.42
303.457	1.55
303.832	1.6
304.207	1.5
304.582	1.54
304.957	1.5
305.332	1.57
305.707	1.53
306.082	1.53
306.456	1.6
306.831	1.44
307.206	1.68
307.58	1.5
307.955	1.59
308.33	1.53
308.704	1.45
309.079	1.56
309.453	1.48
309.828	1.52
310.202	1.41
310.576	1.4
310.951	1.61
311.325	1.69
311.699	1.56
312.073	1.46
312.447	1.5
312.821	1.41
313.196	1.72
313.57	1.48
313.944	1.48
314.317	1.41
314.691	1.58
315.065	1.47
315.439	1.58
315.813	1.58
316.187	1.55
316.56	1.58
316.934	1.61
317.308	1.55
317.681	1.47
318.055	1.56
318.428	1.6
318.802	1.59
319.175	1.57
319.549	1.41
319.922	1.43
320.295	1.39
320.669	1.58
321.042	1.57
321.415	1.81
321.788	1.55
322.162	1.59
322.535	1.53
322.908	1.62
323.281	1.54
323.654	1.72
324.027	1.45
324.4	1.66
324.773	1.57
325.145	1.68
325.518	1.47
325.891	1.59
326.264	1.54
326.636	1.6
327.009	1.43
327.382	1.43
327.754	1.78
328.127	1.45
328.499	1.86
328.872	1.56
329.244	1.56
329.616	1.51
329.989	1.46
330.361	1.5
330.733	1.45
331.106	1.46
331.478	1.52
331.85	1.4
332.222	1.43
332.594	1.56
332.966	1.48
333.338	1.69
333.71	1.95
334.082	1.65
334.454	1.59
334.826	1.56
335.197	1.5
335.569	1.83
335.941	1.47
336.312	1.45
336.684	1.49
337.056	1.5
337.427	1.65
337.799	1.61
338.17	1.58
338.542	1.49
338.913	1.55
339.284	1.54
339.656	1.49
340.027	1.69
340.398	1.53
340.769	1.45
341.141	1.69
341.512	1.58
341.883	1.54
342.254	1.55
342.625	1.45
342.996	1.54
343.367	1.63
343.738	1.61
344.108	1.57
344.479	1.72
344.85	1.45
345.221	1.55
345.591	1.44
345.962	1.48
346.333	1.5
346.703	1.25
347.074	1.41
347.444	1.33
347.815	1.48
348.185	1.49
348.556	1.48
348.926	1.31
349.296	1.41
349.666	1.51
350.037	1.28
350.407	1.3
350.777	1.33
351.147	1.31
351.517	1.4
351.887	1.48
352.257	1.46
352.627	1.27
352.997	1.31
353.367	1.46
353.737	1.31
354.106	1.36
354.476	1.33
354.846	1.41
355.216	1.38
355.585	1.41
355.955	1.34
356.324	1.41
356.694	1.34
357.063	1.35
357.433	1.24
357.802	1.3
358.171	1.31
358.541	1.29
358.91	1.36
359.279	1.32
359.648	1.21
360.017	1.29
360.387	1.23
360.756	1.22
361.125	1.25
361.494	1.29
361.863	1.23
362.231	1.25
362.6	1.2
362.969	1.18
363.338	1.18
363.707	1.19
364.075	1.25
364.444	1.12
364.813	1.23
365.181	1.1
365.55	1.14
365.918	1.12
366.287	1.13
366.655	1.15
367.024	1.12
367.392	1.09
367.76	1.09
368.128	1.13
368.497	1.11
368.865	1.06
369.233	1.03
369.601	1.06
369.969	1.03
370.337	1.07
370.705	1.02
371.073	1.03
371.441	1.05
371.809	1.01
372.177	1.02
372.544	1.06
372.912	1
373.28	1.02
373.647	1.09
374.015	1.07
374.383	1.06
374.75	1.04
375.118	1.07
375.485	1.05
375.853	1.06
376.22	1.02
376.587	1.04
376.955	1.06
377.322	1.05
377.689	1.02
378.056	0.99
378.423	1.02
378.79	0.98
379.157	1.07
379.524	1.06
379.891	1.03
380.258	1.08
380.625	1.03
380.992	1.01
381.359	1.1
381.726	1.1
382.092	1.02
382.459	1.09
382.826	1.07
383.192	1.09
383.559	1.08
383.925	1.12
384.292	1.08
384.658	1.11
385.025	1.08
385.391	1.12
385.757	1.14
386.123	1.16
386.49	1.11
386.856	1.2
387.222	1.16
387.588	1.13
387.954	1.17
388.32	1.19
388.686	1.14
389.052	1.2
389.418	1.17
389.784	1.13
390.15	1.17
390.515	1.11
390.881	1.23
391.247	1.1
391.613	1.25
391.978	1.13
392.344	1.19
392.709	1.12
393.075	1.23
393.44	1.22
393.806	1.19
394.171	1.15
394.536	1.13
394.902	1.17
395.267	1.1
395.632	1.13
395.997	1.15
396.362	1.15
396.727	1.15
397.092	1.15
397.457	1.11
397.822	1.12
398.187	1.13
398.552	1.08
398.917	1.15
399.282	1.07
399.646	1.11
400.011	1.12
400.376	1.08
400.74	1.06
401.105	1.07
401.47	1.04
401.834	1.05
402.199	1.04
402.563	1
402.927	1.03
403.292	1.05
403.656	1.01
404.02	1.05
404.384	1
404.749	1.01
405.113	0.99
405.477	0.96
405.841	1
406.205	0.97
406.569	0.92
406.933	0.95
407.296	0.91
407.66	0.97
408.024	0.93
408.388	0.92
408.752	0.94
409.115	0.91
409.479	0.94
409.842	0.89
410.206	0.88
410.569	0.89
410.933	0.92
411.296	0.88
411.66	0.91
412.023	0.85
412.386	0.88
412.749	0.84
413.113	0.86
413.476	0.79
413.839	0.84
414.202	0.81
414.565	0.79
414.928	0.83
415.291	0.81
415.654	0.85
416.017	0.85
416.38	0.82
416.742	0.78
417.105	0.77
417.468	0.81
417.83	0.82
418.193	0.85
418.556	0.82
418.918	0.78
419.281	0.83
419.643	0.8
420.005	0.77
420.368	0.82
420.73	0.75
421.092	0.78
421.455	0.8
421.817	0.71
422.179	0.77
422.541	0.77
422.903	0.76
423.265	0.75
423.627	0.77
423.989	0.75
424.351	0.76
424.713	0.75
425.075	0.73
425.436	0.72
425.798	0.74
426.16	0.74
426.521	0.73
426.883	0.76
427.245	0.73
427.606	0.71
427.967	0.7
428.329	0.73
428.69	0.73
429.052	0.73
429.413	0.72
429.774	0.73
430.135	0.71
430.497	0.69
430.858	0.7
431.219	0.67
431.58	0.68
431.941	0.7
432.302	0.7
432.663	0.71
433.024	0.73
433.384	0.71
433.745	0.69
434.106	0.69
434.467	0.69
434.827	0.69
435.188	0.69
435.548	0.7
435.909	0.69
436.269	0.71
436.63	0.66
436.99	0.66
437.351	0.67
437.711	0.67
438.071	0.66
438.431	0.67
438.792	0.66
439.152	0.67
439.512	0.64
439.872	0.64
440.232	0.67
440.592	0.67
440.952	0.62
441.312	0.62
441.671	0.62
442.031	0.63
442.391	0.63
442.751	0.62
443.11	0.62
443.47	0.61
443.83	0.61
444.189	0.61
444.549	0.6
444.908	0.61
445.267	0.58
445.627	0.6
445.986	0.58
446.345	0.58
446.705	0.56
447.064	0.57
447.423	0.57
447.782	0.56
448.141	0.57
448.5	0.55
448.859	0.56
449.218	0.56
449.577	0.56
449.936	0.55
450.295	0.56
450.653	0.55
451.012	0.55
451.371	0.54
451.729	0.54
452.088	0.55
452.447	0.54
452.805	0.53
453.163	0.55
453.522	0.53
453.88	0.51
454.239	0.53
454.597	0.51
454.955	0.51
455.313	0.5
455.671	0.5
456.029	0.49
456.388	0.49
456.746	0.48
457.104	0.48
457.461	0.48
457.819	0.48
458.177	0.47
458.535	0.45
458.893	0.46
459.25	0.45
459.608	0.46
459.966	0.44
460.323	0.44
460.681	0.43
461.038	0.44
461.396	0.43
461.753	0.43
462.111	0.41
462.468	0.42
462.825	0.4
463.182	0.41
463.54	0.4
463.897	0.4
464.254	0.4
464.611	0.4
464.968	0.38
465.325	0.39
465.682	0.38
466.039	0.39
466.395	0.37
466.752	0.37
467.109	0.36
467.466	0.37
467.822	0.36
468.179	0.35
468.535	0.35
468.892	0.35
469.248	0.34
469.605	0.33
469.961	0.33
470.318	0.34
470.674	0.33
471.03	0.33
471.386	0.32
471.743	0.31
472.099	0.31
472.455	0.32
472.811	0.31
473.167	0.31
473.523	0.29
473.879	0.29
474.235	0.29
474.59	0.29
474.946	0.29
475.302	0.28
475.657	0.27
476.013	0.28
476.369	0.27
476.724	0.27
477.08	0.27
477.435	0.27
477.791	0.26
478.146	0.26
478.501	0.26
478.857	0.26
479.212	0.25
479.567	0.25
479.922	0.23
480.277	0.24
480.632	0.23
480.987	0.23
481.342	0.23
481.697	0.23
482.052	0.23
482.407	0.22
482.762	0.23
483.116	0.21
483.471	0.21
483.826	0.21
484.18	0.21
484.535	0.21
484.89	0.21
485.244	0.2
485.598	0.2
485.953	0.2
486.307	0.2
486.661	0.21
487.016	0.19
487.37	0.19
487.724	0.19
488.078	0.19
488.432	0.18
488.786	0.18
489.14	0.18
489.494	0.18
489.848	0.18
490.202	0.18
490.556	0.18
490.91	0.18
491.263	0.17
491.617	0.17
491.971	0.17
492.324	0.17
492.678	0.17
493.031	0.17
493.385	0.17
493.738	0.17
494.091	0.17
494.445	0.17
494.798	0.16
495.151	0.17
495.504	0.16
495.857	0.16
496.21	0.16
496.564	0.16
496.916	0.16
497.269	0.15
497.622	0.16
497.975	0.15
498.328	0.15
498.681	0.15
499.033	0.14
499.386	0.15
499.739	0.15
500.091	0.14
500.444	0.15
500.796	0.14
501.149	0.14
501.501	0.15
501.854	0.14
502.206	0.15
502.558	0.15
502.91	0.14
503.263	0.14
503.615	0.14
503.967	0.15
504.319	0.14
504.671	0.14
505.023	0.14
505.375	0.14
505.726	0.13
506.078	0.14
506.43	0.14
506.782	0.13
507.133	0.14
507.485	0.14
507.837	0.15
508.188	0.14
508.54	0.14
508.891	0.14
509.243	0.13
509.594	0.14
509.945	0.14
510.296	0.13
510.648	0.14
510.999	0.13
511.35	0.14
511.701	0.14
512.052	0.13
512.403	0.15
512.754	0.14
513.105	0.14
513.456	0.13
513.807	0.13
514.157	0.14
514.508	0.14
514.859	0.13
515.209	0.13
515.56	0.13
515.91	0.13
516.261	0.13
516.611	0.13
516.962	0.13
517.312	0.13
517.662	0.13
518.013	0.13
518.363	0.14
518.713	0.14
519.063	0.14
519.413	0.14
519.763	0.14
520.113	0.14
520.463	0.14
520.813	0.15
521.163	0.15
521.512	0.14
521.862	0.14
522.212	0.14
522.562	0.14
522.911	0.14
523.261	0.14
523.61	0.14
523.96	0.14
524.309	0.14
524.658	0.14
525.008	0.14
525.357	0.14
525.706	0.14
526.056	0.13
526.405	0.14
526.754	0.14
527.103	0.13
527.452	0.13
527.801	0.14
528.15	0.14
528.499	0.14
528.847	0.14
529.196	0.15
529.545	0.14
529.893	0.15
530.242	0.14
530.591	0.14
530.939	0.15
531.288	0.15
531.636	0.14
531.985	0.14
532.333	0.14
532.681	0.15
533.029	0.14
533.378	0.15
533.726	0.15
534.074	0.15
534.422	0.14
534.77	0.15
535.118	0.15
535.466	0.14
535.814	0.15
536.162	0.15
536.509	0.15
536.857	0.15
537.205	0.15
537.552	0.15
537.9	0.15
538.248	0.15
538.595	0.15
538.943	0.15
539.29	0.15
539.637	0.15
539.985	0.15
540.332	0.15
540.679	0.15
541.026	0.15
541.373	0.16
541.721	0.14
542.068	0.14
542.415	0.14
542.762	0.14
543.108	0.14
543.455	0.13
543.802	0.14
544.149	0.14
544.496	0.14
544.842	0.14
545.189	0.13
545.535	0.13
545.882	0.14
546.228	0.13
546.575	0.14
546.921	0.13
547.267	0.14
547.614	0.13
547.96	0.14
548.306	0.13
548.652	0.14
548.998	0.15
549.344	0.14
549.69	0.14
550.036	0.13
550.382	0.14
550.728	0.15
551.074	0.14
551.42	0.14
551.765	0.15
552.111	0.15
552.457	0.14
552.802	0.14
553.148	0.14
553.493	0.14
553.839	0.14
554.184	0.15
554.529	0.14
554.875	0.15
555.22	0.15
555.565	0.15
555.91	0.14
556.255	0.16
556.6	0.15
556.945	0.14
557.29	0.15
557.635	0.15
557.98	0.14
558.325	0.15
558.67	0.15
559.014	0.15
559.359	0.15
559.704	0.15
560.048	0.13
560.393	0.15
560.737	0.14
561.082	0.15
561.426	0.14
561.77	0.14
562.115	0.14
562.459	0.14
562.803	0.14
563.147	0.14
563.491	0.15
563.835	0.15
564.179	0.15
564.523	0.14
564.867	0.14
565.211	0.14
565.555	0.15
565.899	0.14
566.242	0.15
566.586	0.14
566.93	0.15
567.273	0.15
567.617	0.15
567.96	0.15
568.304	0.15
568.647	0.15
568.99	0.15
569.334	0.15
569.677	0.15
570.02	0.15
570.363	0.16
570.706	0.14
571.049	0.15
571.392	0.16
571.735	0.14
572.078	0.15
572.421	0.16
572.764	0.15
573.106	0.15
573.449	0.15
573.792	0.15
574.134	0.14
574.477	0.15
574.819	0.15
575.162	0.15
575.504	0.15
575.847	0.15
576.189	0.15
576.531	0.15
576.873	0.14
577.215	0.14
577.558	0.15
577.9	0.14
578.242	0.15
578.584	0.15
578.926	0.15
579.267	0.15
579.609	0.14
579.951	0.15
580.293	0.15
580.634	0.15
580.976	0.15
581.318	0.15
581.659	0.15
582.001	0.15
582.342	0.14
582.683	0.15
583.025	0.14
583.366	0.14
583.707	0.14
584.049	0.14
584.39	0.15
584.731	0.14
585.072	0.13
585.413	0.14
585.754	0.14
586.095	0.15
586.435	0.15
586.776	0.15
587.117	0.15
587.458	0.14
587.798	0.14
588.139	0.14
588.48	0.14
588.82	0.14
589.161	0.14
589.501	0.14
589.841	0.14
590.182	0.15
590.522	0.14
590.862	0.14
591.202	0.15
591.542	0.14
591.882	0.14
592.222	0.15
592.562	0.14
592.902	0.14
593.242	0.15
593.582	0.14
593.922	0.14
594.261	0.14
594.601	0.14
594.941	0.14
595.28	0.15
595.62	0.14
595.959	0.14
596.299	0.14
596.638	0.14
596.977	0.14
597.317	0.15
597.656	0.14
597.995	0.15
598.334	0.15
598.673	0.14
599.012	0.15
599.351	0.15
599.69	0.14
600.029	0.15
600.368	0.15
600.707	0.16
601.046	0.15
601.384	0.15
601.723	0.16
602.061	0.15
602.4	0.15
602.738	0.14
603.077	0.15
603.415	0.14
603.754	0.14
604.092	0.15
604.43	0.14
604.768	0.15
605.107	0.15
605.445	0.14
605.783	0.15
606.121	0.15
606.459	0.14
606.796	0.15
607.134	0.15
607.472	0.14
607.81	0.15
608.148	0.14
608.485	0.14
608.823	0.14
609.16	0.14
609.498	0.14
609.835	0.14
610.173	0.14
610.51	0.14
610.847	0.14
611.185	0.14
611.522	0.14
611.859	0.14
612.196	0.15
612.533	0.15
612.87	0.15
613.207	0.15
613.544	0.15
613.881	0.15
614.217	0.15
614.554	0.15
614.891	0.15
615.228	0.15
615.564	0.16
615.901	0.15
616.237	0.15
616.574	0.16
616.91	0.15
617.246	0.15
617.583	0.16
617.919	0.16
618.255	0.15
618.591	0.15
618.927	0.16
619.263	0.16
619.599	0.15
619.935	0.15
620.271	0.16
620.607	0.15
620.943	0.15
621.279	0.16
621.614	0.15
621.95	0.15
622.286	0.14
622.621	0.15
622.957	0.15
623.292	0.14
623.627	0.15
623.963	0.14
624.298	0.15
624.633	0.14
624.968	0.15
625.304	0.14
625.639	0.14
625.974	0.14
626.309	0.14
626.644	0.14
626.979	0.15
627.313	0.14
627.648	0.14
627.983	0.14
628.318	0.13
628.652	0.14
628.987	0.14
629.321	0.14
629.656	0.13
629.99	0.13
630.325	0.14
630.659	0.13
630.993	0.13
631.327	0.13
631.662	0.12
631.996	0.13
632.33	0.13
632.664	0.13
632.998	0.13
633.332	0.13
633.666	0.13
633.999	0.13
634.333	0.13
634.667	0.12
635.001	0.12
635.334	0.13
635.668	0.12
636.001	0.12
636.335	0.13
636.668	0.13
637.001	0.12
637.335	0.13
637.668	0.13
638.001	0.12
638.334	0.12
638.668	0.13
639.001	0.12
639.334	0.12
639.667	0.13
639.999	0.12
640.332	0.13
640.665	0.13
640.998	0.13
641.331	0.13
641.663	0.12
641.996	0.13
642.328	0.13
642.661	0.12
642.993	0.13
643.326	0.13
643.658	0.13
643.99	0.12
644.323	0.13
644.655	0.13
644.987	0.13
645.319	0.13
645.651	0.13
645.983	0.12
646.315	0.13
646.647	0.13
646.979	0.13
647.31	0.13
647.642	0.13
647.974	0.13
648.305	0.13
648.637	0.12
648.968	0.13
649.3	0.13
649.631	0.13
649.963	0.13
650.294	0.13
650.625	0.13
650.957	0.13
651.288	0.13
651.619	0.13
651.95	0.13
652.281	0.13
652.612	0.13
652.943	0.13
653.274	0.14
653.604	0.12
653.935	0.13
654.266	0.13
654.596	0.12
654.927	0.13
655.258	0.12
655.588	0.13
655.918	0.13
656.249	0.11
656.579	0.12
656.909	0.12
657.24	0.12
657.57	0.12
657.9	0.12
658.23	0.12
658.56	0.12
658.89	0.12
659.22	0.12
659.55	0.12
659.88	0.12
660.209	0.12
660.539	0.14
660.869	0.13
661.198	0.12
661.528	0.12
661.857	0.12
662.187	0.12
662.516	0.12
662.846	0.11
663.175	0.12
663.504	0.11
663.833	0.11
664.163	0.12
664.492	0.12
664.821	0.12
665.15	0.12
665.479	0.12
665.807	0.11
666.136	0.12
666.465	0.12
666.794	0.12
667.122	0.12
667.451	0.12
667.78	0.12
668.108	0.13
668.437	0.12
668.765	0.12
669.093	0.13
669.422	0.12
669.75	0.12
670.078	0.12
670.406	0.12
670.734	0.12
671.062	0.12
671.39	0.12
671.718	0.12
672.046	0.12
672.374	0.11
672.702	0.12
673.029	0.11
673.357	0.12
673.685	0.12
674.012	0.12
674.34	0.11
674.667	0.11
674.995	0.12
675.322	0.11
675.649	0.11
675.977	0.12
676.304	0.12
676.631	0.12
676.958	0.11
677.285	0.11
677.612	0.11
677.939	0.11
678.266	0.12
678.593	0.11
678.92	0.11
679.246	0.1
679.573	0.1
679.9	0.11
680.226	0.11
680.553	0.11
680.879	0.11
681.206	0.11
681.532	0.11
681.858	0.11
682.184	0.11
682.511	0.12
682.837	0.11
683.163	0.11
683.489	0.11
683.815	0.11
684.141	0.11
684.467	0.11
684.793	0.11
685.118	0.11
685.444	0.12
685.77	0.11
686.095	0.11
686.421	0.11
686.746	0.11
687.072	0.11
687.397	0.1
687.723	0.11
688.048	0.11
688.373	0.1
688.698	0.1
689.023	0.1
689.349	0.1
689.674	0.11
689.999	0.1
690.323	0.09
690.648	0.1
690.973	0.1
691.298	0.1
691.623	0.1
691.947	0.11
692.272	0.11
692.596	0.1
692.921	0.11
693.245	0.1
693.57	0.11
693.894	0.11
694.218	0.11
694.543	0.1
694.867	0.1
695.191	0.1
695.515	0.11
695.839	0.11
696.163	0.11
696.487	0.11
696.811	0.11
697.135	0.11
697.458	0.11
697.782	0.1
698.106	0.1
698.429	0.11
698.753	0.1
699.076	0.1
699.4	0.1
699.723	0.11
700.046	0.1
700.37	0.1
700.693	0.1
701.016	0.1
701.339	0.1
701.662	0.11
701.985	0.1
702.308	0.1
702.631	0.1
702.954	0.1
703.277	0.1
703.599	0.1
703.922	0.09
704.245	0.09
704.567	0.1
704.89	0.09
705.212	0.1
705.535	0.09
705.857	0.09
706.179	0.09
706.502	0.09
706.824	0.09
707.146	0.08
707.468	0.09
707.79	0.1
708.112	0.09
708.434	0.1
708.756	0.1
709.078	0.1
709.399	0.09
709.721	0.09
710.043	0.1
710.364	0.1
710.686	0.1
711.007	0.1
711.329	0.1
711.65	0.1
711.972	0.09
712.293	0.1
712.614	0.1
712.935	0.1
713.256	0.09
713.577	0.1
713.898	0.1
714.219	0.09
714.54	0.09
714.861	0.09
715.182	0.09
715.503	0.09
715.823	0.09
716.144	0.09
716.464	0.09
716.785	0.08
717.105	0.08
717.426	0.09
717.746	0.09
718.066	0.07
718.387	0.09
718.707	0.08
719.027	0.09
719.347	0.07
719.667	0.08
719.987	0.07
720.307	0.08
720.627	0.08
720.947	0.08
721.266	0.08
721.586	0.07
721.906	0.08
722.225	0.08
722.545	0.08
722.864	0.08
723.184	0.09
723.503	0.08
723.823	0.08
724.142	0.08
724.461	0.08
724.78	0.08
725.099	0.08
725.418	0.08
725.737	0.08
726.056	0.09
726.375	0.08
726.694	0.08
727.013	0.08
727.331	0.08
727.65	0.08
727.969	0.08
728.287	0.08
728.606	0.08
728.924	0.07
729.242	0.07
729.561	0.08
729.879	0.08
730.197	0.07
730.515	0.07
730.834	0.08
731.152	0.08
731.47	0.08
731.788	0.08
732.105	0.08
732.423	0.08
732.741	0.08
733.059	0.08
733.376	0.08
733.694	0.08
734.012	0.08
734.329	0.09
734.647	0.08
734.964	0.09
735.281	0.08
735.599	0.08
735.916	0.09
736.233	0.08
736.55	0.09
736.867	0.08
737.184	0.09
737.501	0.08
737.818	0.08
738.135	0.08
738.452	0.08
738.768	0.08
739.085	0.08
739.402	0.07
739.718	0.09
740.035	0.08
740.351	0.08
740.668	0.08
740.984	0.08
741.3	0.07
741.617	0.09
741.933	0.07
742.249	0.08
742.565	0.08
742.881	0.08
743.197	0.08
743.513	0.07
743.829	0.08
744.144	0.07
744.46	0.08
744.776	0.08
745.091	0.08
745.407	0.07
745.722	0.07
746.038	0.07
746.353	0.07
746.669	0.07
746.984	0.07
747.299	0.07
747.614	0.07
747.93	0.07
748.245	0.05
748.56	0.06
748.875	0.06
749.189	0.07
749.504	0.07
749.819	0.07
750.134	0.07
750.448	0.06
750.763	0.06
751.078	0.06
751.392	0.07
751.707	0.07
752.021	0.07
752.335	0.07
752.65	0.08
752.964	0.07
753.278	0.07
753.592	0.07
753.906	0.07
754.22	0.07
754.534	0.07
754.848	0.07
755.162	0.08
755.476	0.08
755.789	0.07
756.103	0.06
756.417	0.07
756.73	0.07
757.044	0.07
757.357	0.07
757.671	0.07
757.984	0.07
758.297	0.08
758.61	0.08
758.924	0.07
759.237	0.07
759.55	0.06
759.863	0.07
760.176	0.07
760.488	0.07
760.801	0.07
761.114	0.07
761.427	0.07
761.739	0.07
762.052	0.06
762.365	0.06
762.677	0.07
762.99	0.06
763.302	0.06
763.614	0.07
763.926	0.07
764.239	0.07
764.551	0.06
764.863	0.07
765.175	0.07
765.487	0.07
765.799	0.06
766.111	0.06
766.423	0.07
766.734	0.07
767.046	0.06
767.358	0.06
767.669	0.06
767.981	0.06
768.292	0.06
768.604	0.07
768.915	0.06
769.226	0.06
769.537	0.05
769.849	0.06
770.16	0.06
770.471	0.05
770.782	0.06
771.093	0.06
771.404	0.05
771.715	0.05
772.025	0.06
772.336	0.05
772.647	0.05
772.957	0.07
773.268	0.06
773.578	0.07
773.889	0.06
774.199	0.07
774.51	0.07
774.82	0.06
775.13	0.07
775.44	0.06
775.75	0.07
776.06	0.07
776.37	0.06
776.68	0.07
776.99	0.07
777.3	0.07
777.61	0.08
777.92	0.06
778.229	0.06
778.539	0.06
778.848	0.06
779.158	0.06
779.467	0.06
779.777	0.06
780.086	0.06
780.395	0.06
780.704	0.05
781.013	0.05
781.323	0.05
781.632	0.05
781.941	0.07
782.249	0.06
782.558	0.05
782.867	0.05
783.176	0.05
783.485	0.05
783.793	0.06
784.102	0.05
784.41	0.05
784.719	0.05
785.027	0.05
785.335	0.05
785.644	0.06
785.952	0.05
786.26	0.05
786.568	0.05
786.876	0.05
787.184	0.06
787.492	0.06
787.8	0.05
788.108	0.07
788.416	0.06
788.723	0.06
789.031	0.05
789.338	0.05
789.646	0.05
789.953	0.06
790.261	0.05
790.568	0.06
790.876	0.05
791.183	0.06
791.49	0.05
791.797	0.06
792.104	0.05
792.411	0.06
792.718	0.06
793.025	0.06
793.332	0.06
793.639	0.06
793.945	0.07
794.252	0.06
794.559	0.06
794.865	0.06
795.172	0.06
795.478	0.06
795.784	0.06
796.091	0.06
796.397	0.07
796.703	0.07
797.009	0.07
797.315	0.06
797.622	0.06
797.927	0.06
798.233	0.06
798.539	0.07
798.845	0.07
799.151	0.06
799.456	0.07
799.762	0.06
800.068	0.07
800.373	0.07
800.679	0.07
800.984	0.07
801.289	0.06
801.595	0.06
801.9	0.07
802.205	0.06
802.51	0.06
802.815	0.07
803.12	0.07
803.425	0.06
803.73	0.07
804.035	0.07
804.339	0.06
804.644	0.06
804.949	0.06
805.253	0.05
805.558	0.07
805.862	0.06
806.167	0.06
806.471	0.05
806.775	0.06
807.08	0.05
807.384	0.06
807.688	0.06
807.992	0.06
808.296	0.05
808.6	0.06
808.904	0.06
809.207	0.06
809.511	0.06
809.815	0.07
810.119	0.06
810.422	0.07
810.726	0.07
811.029	0.08
811.332	0.07
811.636	0.08
811.939	0.06
812.242	0.06
812.546	0.07
812.849	0.07
813.152	0.07
813.455	0.07
813.758	0.08
814.06	0.08
814.363	0.07
814.666	0.08
814.969	0.07
815.271	0.08
815.574	0.07
815.877	0.07
816.179	0.07
816.481	0.07
816.784	0.06
817.086	0.06
817.388	0.06
817.69	0.05
817.993	0.05
818.295	0.06
818.597	0.05
818.899	0.05
819.2	0.05
819.502	0.05
819.804	0.05
820.106	0.04
820.407	0.05
820.709	0.05
821.01	0.05
821.312	0.05
821.613	0.05
821.915	0.04
822.216	0.04
822.517	0.04
822.818	0.04
823.119	0.04
823.42	0.05
823.721	0.03
824.022	0.05
824.323	0.05
824.624	0.04
824.925	0.05
825.226	0.06
825.526	0.04
825.827	0.04
826.127	0.05
826.428	0.05
826.728	0.04
827.028	0.05
827.329	0.04
827.629	0.03
827.929	0.04
828.229	0.04
828.529	0.04
828.829	0.05
829.129	0.04
829.429	0.04
829.729	0.04
830.029	0.04
830.328	0.04
830.628	0.04
830.927	0.03
831.227	0.03
831.526	0.04
831.826	0.03
832.125	0.04
832.424	0.04
832.724	0.03
833.023	0.04
833.322	0.04
833.621	0.04
833.92	0.03
834.219	0.04
834.518	0.04
834.816	0.02
835.115	0.03
835.414	0.03
835.712	0.02
836.011	0.02
836.309	0.03
836.608	0.01
836.906	0.01
837.205	0.01
837.503	0.01
837.801	0.02
838.099	0.01
838.397	-0.01
838.695	0
838.993	0.01
839.291	-0.01
839.589	-0
839.887	-0
840.184	-0.01
840.482	-0.01
840.78	-0.01
841.077	-0.01
841.375	-0.01
841.672	-0
841.969	-0.01
842.267	-0.01
842.564	-0.01
842.861	-0.01
843.158	-0
843.455	-0.02
843.752	-0.01
844.049	-0.01
844.346	-0.02
844.643	-0.02
844.94	-0.03
845.236	-0.01
845.533	-0.01
845.83	-0.01
846.126	-0.02
846.423	-0.02
846.719	-0.03
847.015	-0.03
847.312	-0.03
847.608	-0.03
847.904	-0.03
848.2	-0.03
848.496	-0.03
848.792	-0.03
849.088	-0.02
849.384	-0.03
849.68	-0.03
849.975	-0.04
850.271	-0.04
850.567	-0.04
850.862	-0.04
851.158	-0.04
851.453	-0.04
851.748	-0.05
852.044	-0.04
852.339	-0.04
852.634	-0.05
852.929	-0.04
853.224	-0.05
853.519	-0.06
853.814	-0.04
854.109	-0.05
854.404	-0.05
854.699	-0.05
854.994	-0.05
855.288	-0.04
855.583	-0.04
855.877	-0.06
856.172	-0.05
856.466	-0.06
856.76	-0.06
857.055	-0.06
857.349	-0.07
857.643	-0.07
857.937	-0.09
858.231	-0.08
858.525	-0.09
858.819	-0.08
859.113	-0.09
859.407	-0.09
859.701	-0.1
859.994	-0.1
860.288	-0.08
860.581	-0.1
860.875	-0.1
861.168	-0.1
861.462	-0.1
861.755	-0.1
862.048	-0.11
862.341	-0.1
862.634	-0.1
862.928	-0.1
863.221	-0.1
863.513	-0.11
863.806	-0.11
864.099	-0.11
864.392	-0.1
864.685	-0.1
864.977	-0.11
865.27	-0.11
865.562	-0.11
865.855	-0.1
866.147	-0.12
866.44	-0.1
866.732	-0.11
867.024	-0.12
867.316	-0.12
867.608	-0.12
867.9	-0.12
868.192	-0.13
868.484	-0.12
868.776	-0.13
869.068	-0.11
869.359	-0.12
869.651	-0.13
869.943	-0.13
870.234	-0.13
870.526	-0.14
870.817	-0.14
871.108	-0.13
871.4	-0.13
871.691	-0.15
871.982	-0.15
872.273	-0.15
872.564	-0.15
872.855	-0.14
873.146	-0.14
873.437	-0.15
873.728	-0.17
874.019	-0.15
874.309	-0.15
874.6	-0.15
874.89	-0.16
875.181	-0.16
875.471	-0.15
875.762	-0.15
876.052	-0.16
876.342	-0.15
876.632	-0.16
876.922	-0.18
877.213	-0.15
877.503	-0.18
877.792	-0.16
878.082	-0.16
878.372	-0.16
878.662	-0.17
878.952	-0.17
879.241	-0.16
879.531	-0.15
879.82	-0.16
880.11	-0.16
880.399	-0.16
880.688	-0.16
880.978	-0.16
881.267	-0.16
