Data from 12-12-AQDScycling_Absorbance__306__00306.txt Node

Date: Tue Dec 12 12:13:14 EST 2023
User: kyuminlee
Spectrometer: FLMS00943
Trigger mode: 0
Integration Time (sec): 1.000000E-1
Scans to average: 1
Electric dark correction enabled: true
Nonlinearity correction enabled: false
Boxcar width: 0
XAxis mode: Wavelengths
Number of Pixels in Spectrum: 2048
>>>>>Begin Spectral Data<<<<<
179.651	-0.27
180.037	-0.27
180.424	-0.27
180.81	-0.22
181.197	0.18
181.583	0.87
181.97	-0.28
182.356	-0
182.743	-0
183.129	1.44
183.515	0.3
183.901	-1.89
184.288	0.11
184.674	-0
185.06	-1.04
185.446	-0.12
185.832	-0
186.218	0.4
186.604	0.26
186.99	-0
187.376	-0
187.762	-0
188.148	1.08
188.534	-0.14
188.92	0.06
189.305	0.17
189.691	0.11
190.077	0.18
190.463	0.22
190.848	0.13
191.234	0.16
191.619	0.07
192.005	0.22
192.391	0.21
192.776	0.08
193.161	0.28
193.547	0.17
193.932	0.11
194.318	0.12
194.703	0.19
195.088	0.27
195.473	0.23
195.859	0.19
196.244	0.18
196.629	0.03
197.014	0.17
197.399	0.19
197.784	0.29
198.169	0.17
198.554	0.22
198.939	0.22
199.324	0.23
199.709	0.09
200.094	0.22
200.478	0.08
200.863	0.22
201.248	0.23
201.633	0.17
202.017	0.31
202.402	0.23
202.787	0.2
203.171	0.19
203.556	0.16
203.94	0.08
204.325	0.23
204.709	0.23
205.093	0.11
205.478	0.07
205.862	0.04
206.246	0.11
206.631	0.49
207.015	0.02
207.399	0.36
207.783	0.25
208.167	0.19
208.551	0.25
208.935	0.16
209.319	0.2
209.703	0.12
210.087	0.18
210.471	0.07
210.855	0.21
211.239	0.19
211.623	0.24
212.007	0.35
212.39	0.42
212.774	0.1
213.158	0.21
213.541	0.3
213.925	0.26
214.309	0.31
214.692	0.23
215.076	0.17
215.459	0.24
215.842	0.21
216.226	0.27
216.609	0.38
216.993	0.23
217.376	0.41
217.759	0.27
218.142	0.44
218.525	0.47
218.909	0.35
219.292	0.39
219.675	0.44
220.058	0.48
220.441	0.45
220.824	0.58
221.207	0.6
221.59	0.52
221.973	0.51
222.355	0.5
222.738	0.65
223.121	0.67
223.504	0.62
223.886	0.68
224.269	0.66
224.652	0.6
225.034	0.74
225.417	0.75
225.799	0.84
226.182	0.83
226.564	0.8
226.947	0.76
227.329	0.88
227.711	1.09
228.094	0.94
228.476	1.04
228.858	0.85
229.24	0.86
229.623	0.87
230.005	0.95
230.387	0.85
230.769	0.84
231.151	0.93
231.533	0.91
231.915	0.9
232.297	0.96
232.679	1.02
233.061	0.94
233.442	1.07
233.824	1.08
234.206	1.37
234.588	1.16
234.969	1.12
235.351	1.03
235.733	0.97
236.114	1.15
236.496	1.18
236.877	1.28
237.259	1.07
237.64	1.17
238.022	1.07
238.403	1
238.784	0.98
239.165	1
239.547	1.11
239.928	0.98
240.309	1.1
240.69	1.12
241.071	1.15
241.452	1.13
241.834	1.04
242.215	1.14
242.595	1.08
242.976	1.19
243.357	1.14
243.738	1.08
244.119	1.38
244.5	1.27
244.881	1.22
245.261	1.16
245.642	1.22
246.023	1.06
246.403	1.19
246.784	1.25
247.164	1.28
247.545	1.26
247.925	1.3
248.306	1.2
248.686	1.54
249.067	1.26
249.447	1.3
249.827	1.49
250.207	1.49
250.588	1.26
250.968	1.55
251.348	1.37
251.728	1.54
252.108	1.34
252.488	1.39
252.868	1.43
253.248	1.37
253.628	1.35
254.008	1.46
254.388	1.36
254.768	1.3
255.147	1.34
255.527	1.45
255.907	1.47
256.287	1.39
256.666	1.41
257.046	1.5
257.425	1.48
257.805	1.37
258.184	1.29
258.564	1.36
258.943	1.32
259.323	1.57
259.702	1.6
260.081	1.51
260.461	1.47
260.84	1.47
261.219	1.77
261.598	1.51
261.977	1.44
262.356	1.67
262.736	1.54
263.115	1.67
263.494	1.44
263.873	1.39
264.251	1.53
264.63	1.62
265.009	1.53
265.388	1.46
265.767	1.42
266.145	1.36
266.524	1.32
266.903	1.41
267.281	1.4
267.66	1.49
268.039	1.4
268.417	1.37
268.796	1.4
269.174	1.44
269.552	1.3
269.931	1.53
270.309	1.58
270.687	1.43
271.066	1.54
271.444	1.34
271.822	1.43
272.2	1.44
272.578	1.36
272.956	1.43
273.334	1.42
273.712	1.46
274.09	1.55
274.468	1.44
274.846	1.22
275.224	1.43
275.602	1.44
275.98	1.61
276.357	1.42
276.735	1.8
277.113	1.54
277.49	1.3
277.868	1.3
278.246	1.31
278.623	1.33
279.001	1.42
279.378	1.51
279.756	1.4
280.133	1.56
280.51	1.48
280.888	1.43
281.265	1.39
281.642	1.51
282.019	1.55
282.396	1.73
282.773	1.47
283.151	1.59
283.528	1.56
283.905	1.3
284.282	1.51
284.659	1.58
285.035	1.41
285.412	1.34
285.789	1.53
286.166	1.54
286.543	1.56
286.919	1.67
287.296	1.34
287.673	1.66
288.049	1.53
288.426	1.46
288.802	1.46
289.179	1.37
289.555	1.53
289.932	1.48
290.308	1.4
290.684	1.47
291.061	1.4
291.437	1.4
291.813	1.35
292.189	1.22
292.565	1.36
292.942	1.44
293.318	1.41
293.694	1.48
294.07	1.37
294.446	1.44
294.822	1.51
295.197	1.54
295.573	1.51
295.949	1.47
296.325	1.5
296.701	1.39
297.076	1.64
297.452	1.68
297.828	1.37
298.203	1.49
298.579	1.38
298.954	1.4
299.33	1.4
299.705	1.39
300.081	1.38
300.456	1.46
300.831	1.39
301.206	1.38
301.582	1.43
301.957	1.45
302.332	1.43
302.707	1.37
303.082	1.35
303.457	1.33
303.832	1.39
304.207	1.31
304.582	1.31
304.957	1.39
305.332	1.31
305.707	1.33
306.082	1.34
306.456	1.4
306.831	1.28
307.206	1.24
307.58	1.36
307.955	1.25
308.33	1.22
308.704	1.29
309.079	1.23
309.453	1.29
309.828	1.24
310.202	1.17
310.576	1.16
310.951	1.27
311.325	1.22
311.699	1.1
312.073	1.13
312.447	1.21
312.821	1.15
313.196	1.24
313.57	1.17
313.944	1.16
314.317	1.19
314.691	1.29
315.065	1.23
315.439	1.24
315.813	1.12
316.187	1.18
316.56	1.25
316.934	1.17
317.308	1.26
317.681	1.2
318.055	1.16
318.428	1.17
318.802	1.15
319.175	1.19
319.549	1.18
319.922	1.11
320.295	1.19
320.669	1.27
321.042	1.14
321.415	1.28
321.788	1.18
322.162	1.16
322.535	1.26
322.908	1.16
323.281	1.14
323.654	1.18
324.027	1.18
324.4	1.22
324.773	1.25
325.145	1.28
325.518	1.23
325.891	1.22
326.264	1.25
326.636	1.16
327.009	1.23
327.382	1.17
327.754	1.22
328.127	1.22
328.499	1.25
328.872	1.26
329.244	1.24
329.616	1.18
329.989	1.21
330.361	1.32
330.733	1.23
331.106	1.21
331.478	1.28
331.85	1.2
332.222	1.16
332.594	1.2
332.966	1.27
333.338	1.37
333.71	1.3
334.082	1.31
334.454	1.23
334.826	1.18
335.197	1.25
335.569	1.29
335.941	1.23
336.312	1.29
336.684	1.24
337.056	1.22
337.427	1.29
337.799	1.3
338.17	1.27
338.542	1.23
338.913	1.31
339.284	1.28
339.656	1.26
340.027	1.39
340.398	1.33
340.769	1.31
341.141	1.36
341.512	1.35
341.883	1.3
342.254	1.29
342.625	1.3
342.996	1.29
343.367	1.19
343.738	1.27
344.108	1.23
344.479	1.3
344.85	1.2
345.221	1.31
345.591	1.25
345.962	1.45
346.333	1.34
346.703	1.31
347.074	1.18
347.444	1.18
347.815	1.31
348.185	1.38
348.556	1.28
348.926	1.19
349.296	1.3
349.666	1.28
350.037	1.17
350.407	1.21
350.777	1.32
351.147	1.33
351.517	1.24
351.887	1.29
352.257	1.32
352.627	1.27
352.997	1.22
353.367	1.35
353.737	1.32
354.106	1.4
354.476	1.33
354.846	1.4
355.216	1.48
355.585	1.43
355.955	1.34
356.324	1.56
356.694	1.39
357.063	1.39
357.433	1.36
357.802	1.55
358.171	1.48
358.541	1.44
358.91	1.37
359.279	1.52
359.648	1.37
360.017	1.37
360.387	1.39
360.756	1.35
361.125	1.49
361.494	1.47
361.863	1.5
362.231	1.48
362.6	1.57
362.969	1.53
363.338	1.48
363.707	1.63
364.075	1.58
364.444	1.41
364.813	1.5
365.181	1.66
365.55	1.42
365.918	1.64
366.287	1.5
366.655	1.54
367.024	1.66
367.392	1.49
367.76	1.51
368.128	1.56
368.497	1.46
368.865	1.45
369.233	1.47
369.601	1.63
369.969	1.62
370.337	1.7
370.705	1.56
371.073	1.57
371.441	1.47
371.809	1.45
372.177	1.42
372.544	1.43
372.912	1.57
373.28	1.58
373.647	1.52
374.015	1.58
374.383	1.65
374.75	1.57
375.118	1.7
375.485	1.59
375.853	1.51
376.22	1.51
376.587	1.53
376.955	1.6
377.322	1.57
377.689	1.53
378.056	1.42
378.423	1.44
378.79	1.54
379.157	1.56
379.524	1.59
379.891	1.58
380.258	1.6
380.625	1.52
380.992	1.5
381.359	1.49
381.726	1.66
382.092	1.51
382.459	1.64
382.826	1.56
383.192	1.58
383.559	1.54
383.925	1.64
384.292	1.46
384.658	1.61
385.025	1.64
385.391	1.67
385.757	1.49
386.123	1.65
386.49	1.54
386.856	1.65
387.222	1.7
387.588	1.5
387.954	1.87
388.32	1.69
388.686	1.74
389.052	1.58
389.418	1.66
389.784	1.44
390.15	1.64
390.515	1.48
390.881	1.73
391.247	1.55
391.613	1.74
391.978	1.5
392.344	1.71
392.709	1.56
393.075	1.64
393.44	1.8
393.806	1.67
394.171	1.57
394.536	1.5
394.902	1.52
395.267	1.56
395.632	1.46
395.997	1.59
396.362	1.6
396.727	1.72
397.092	1.55
397.457	1.63
397.822	1.51
398.187	1.69
398.552	1.52
398.917	1.76
399.282	1.46
399.646	1.53
400.011	1.71
400.376	1.43
400.74	1.52
401.105	1.51
401.47	1.72
401.834	1.72
402.199	1.56
402.563	1.69
402.927	1.48
403.292	1.64
403.656	1.53
404.02	1.58
404.384	1.62
404.749	1.63
405.113	1.71
405.477	1.59
405.841	1.71
406.205	1.63
406.569	1.48
406.933	1.48
407.296	1.62
407.66	1.52
408.024	1.53
408.388	1.87
408.752	1.57
409.115	1.68
409.479	1.46
409.842	1.46
410.206	1.45
410.569	1.55
410.933	1.52
411.296	1.47
411.66	1.49
412.023	1.4
412.386	1.59
412.749	1.49
413.113	1.55
413.476	1.41
413.839	1.44
414.202	1.45
414.565	1.4
414.928	1.46
415.291	1.35
415.654	1.36
416.017	1.44
416.38	1.44
416.742	1.51
417.105	1.48
417.468	1.44
417.83	1.45
418.193	1.4
418.556	1.47
418.918	1.34
419.281	1.37
419.643	1.47
420.005	1.37
420.368	1.39
420.73	1.47
421.092	1.5
421.455	1.51
421.817	1.41
422.179	1.4
422.541	1.5
422.903	1.51
423.265	1.44
423.627	1.49
423.989	1.48
424.351	1.42
424.713	1.5
425.075	1.37
425.436	1.36
425.798	1.47
426.16	1.5
426.521	1.47
426.883	1.53
427.245	1.54
427.606	1.47
427.967	1.31
428.329	1.37
428.69	1.46
429.052	1.36
429.413	1.44
429.774	1.46
430.135	1.43
430.497	1.47
430.858	1.44
431.219	1.46
431.58	1.37
431.941	1.36
432.302	1.39
432.663	1.41
433.024	1.44
433.384	1.45
433.745	1.31
434.106	1.37
434.467	1.36
434.827	1.39
435.188	1.35
435.548	1.43
435.909	1.36
436.269	1.49
436.63	1.37
436.99	1.29
437.351	1.25
437.711	1.38
438.071	1.28
438.431	1.31
438.792	1.31
439.152	1.31
439.512	1.25
439.872	1.31
440.232	1.31
440.592	1.29
440.952	1.28
441.312	1.22
441.671	1.27
442.031	1.33
442.391	1.3
442.751	1.32
443.11	1.29
443.47	1.27
443.83	1.19
444.189	1.22
444.549	1.23
444.908	1.14
445.267	1.19
445.627	1.2
445.986	1.19
446.345	1.17
446.705	1.21
447.064	1.21
447.423	1.17
447.782	1.17
448.141	1.16
448.5	1.11
448.859	1.12
449.218	1.15
449.577	1.17
449.936	1.13
450.295	1.13
450.653	1.08
451.012	1.11
451.371	1.09
451.729	1.11
452.088	1.06
452.447	1.09
452.805	1.07
453.163	1.05
453.522	1.05
453.88	1.05
454.239	1.03
454.597	1
454.955	0.99
455.313	0.99
455.671	0.99
456.029	0.98
456.388	0.97
456.746	0.96
457.104	0.96
457.461	0.94
457.819	0.94
458.177	0.91
458.535	0.91
458.893	0.9
459.25	0.89
459.608	0.87
459.966	0.86
460.323	0.86
460.681	0.84
461.038	0.82
461.396	0.82
461.753	0.8
462.111	0.8
462.468	0.8
462.825	0.78
463.182	0.76
463.54	0.74
463.897	0.76
464.254	0.75
464.611	0.73
464.968	0.73
465.325	0.73
465.682	0.71
466.039	0.69
466.395	0.68
466.752	0.67
467.109	0.65
467.466	0.66
467.822	0.66
468.179	0.63
468.535	0.63
468.892	0.61
469.248	0.62
469.605	0.6
469.961	0.6
470.318	0.6
470.674	0.59
471.03	0.58
471.386	0.57
471.743	0.55
472.099	0.55
472.455	0.54
472.811	0.53
473.167	0.52
473.523	0.5
473.879	0.5
474.235	0.5
474.59	0.49
474.946	0.48
475.302	0.47
475.657	0.47
476.013	0.46
476.369	0.44
476.724	0.45
477.08	0.44
477.435	0.44
477.791	0.43
478.146	0.43
478.501	0.43
478.857	0.42
479.212	0.4
479.567	0.4
479.922	0.38
480.277	0.39
480.632	0.38
480.987	0.38
481.342	0.37
481.697	0.36
482.052	0.36
482.407	0.35
482.762	0.34
483.116	0.33
483.471	0.33
483.826	0.33
484.18	0.32
484.535	0.32
484.89	0.31
485.244	0.31
485.598	0.3
485.953	0.3
486.307	0.3
486.661	0.3
487.016	0.29
487.37	0.29
487.724	0.28
488.078	0.28
488.432	0.28
488.786	0.27
489.14	0.26
489.494	0.26
489.848	0.25
490.202	0.25
490.556	0.25
490.91	0.25
491.263	0.24
491.617	0.25
491.971	0.24
492.324	0.24
492.678	0.24
493.031	0.24
493.385	0.24
493.738	0.23
494.091	0.23
494.445	0.22
494.798	0.22
495.151	0.21
495.504	0.22
495.857	0.21
496.21	0.21
496.564	0.21
496.916	0.21
497.269	0.2
497.622	0.21
497.975	0.21
498.328	0.21
498.681	0.2
499.033	0.2
499.386	0.2
499.739	0.2
500.091	0.19
500.444	0.19
500.796	0.19
501.149	0.19
501.501	0.19
501.854	0.19
502.206	0.18
502.558	0.18
502.91	0.18
503.263	0.18
503.615	0.18
503.967	0.17
504.319	0.18
504.671	0.17
505.023	0.16
505.375	0.17
505.726	0.17
506.078	0.17
506.43	0.17
506.782	0.17
507.133	0.17
507.485	0.17
507.837	0.17
508.188	0.17
508.54	0.17
508.891	0.17
509.243	0.16
509.594	0.16
509.945	0.16
510.296	0.15
510.648	0.16
510.999	0.15
511.35	0.16
511.701	0.16
512.052	0.16
512.403	0.16
512.754	0.15
513.105	0.15
513.456	0.15
513.807	0.15
514.157	0.15
514.508	0.15
514.859	0.15
515.209	0.15
515.56	0.16
515.91	0.15
516.261	0.16
516.611	0.14
516.962	0.15
517.312	0.15
517.662	0.15
518.013	0.15
518.363	0.15
518.713	0.15
519.063	0.15
519.413	0.15
519.763	0.14
520.113	0.15
520.463	0.16
520.813	0.15
521.163	0.16
521.512	0.15
521.862	0.15
522.212	0.15
522.562	0.15
522.911	0.15
523.261	0.15
523.61	0.15
523.96	0.15
524.309	0.15
524.658	0.15
525.008	0.15
525.357	0.15
525.706	0.15
526.056	0.14
526.405	0.15
526.754	0.15
527.103	0.14
527.452	0.15
527.801	0.15
528.15	0.15
528.499	0.15
528.847	0.15
529.196	0.15
529.545	0.16
529.893	0.15
530.242	0.15
530.591	0.16
530.939	0.16
531.288	0.15
531.636	0.16
531.985	0.16
532.333	0.15
532.681	0.15
533.029	0.16
533.378	0.16
533.726	0.15
534.074	0.16
534.422	0.15
534.77	0.16
535.118	0.16
535.466	0.15
535.814	0.15
536.162	0.16
536.509	0.15
536.857	0.16
537.205	0.16
537.552	0.16
537.9	0.16
538.248	0.16
538.595	0.16
538.943	0.15
539.29	0.16
539.637	0.16
539.985	0.16
540.332	0.16
540.679	0.15
541.026	0.15
541.373	0.16
541.721	0.14
542.068	0.15
542.415	0.15
542.762	0.15
543.108	0.14
543.455	0.14
543.802	0.15
544.149	0.14
544.496	0.15
544.842	0.14
545.189	0.14
545.535	0.14
545.882	0.15
546.228	0.14
546.575	0.14
546.921	0.14
547.267	0.14
547.614	0.14
547.96	0.14
548.306	0.14
548.652	0.14
548.998	0.15
549.344	0.14
549.69	0.15
550.036	0.14
550.382	0.14
550.728	0.14
551.074	0.14
551.42	0.15
551.765	0.15
552.111	0.16
552.457	0.15
552.802	0.15
553.148	0.14
553.493	0.15
553.839	0.16
554.184	0.15
554.529	0.14
554.875	0.15
555.22	0.16
555.565	0.15
555.91	0.16
556.255	0.16
556.6	0.15
556.945	0.14
557.29	0.15
557.635	0.16
557.98	0.16
558.325	0.15
558.67	0.16
559.014	0.16
559.359	0.16
559.704	0.15
560.048	0.15
560.393	0.15
560.737	0.14
561.082	0.15
561.426	0.14
561.77	0.15
562.115	0.15
562.459	0.15
562.803	0.14
563.147	0.14
563.491	0.15
563.835	0.15
564.179	0.14
564.523	0.14
564.867	0.14
565.211	0.15
565.555	0.14
565.899	0.15
566.242	0.15
566.586	0.14
566.93	0.15
567.273	0.16
567.617	0.15
567.96	0.16
568.304	0.15
568.647	0.14
568.99	0.15
569.334	0.16
569.677	0.15
570.02	0.16
570.363	0.15
570.706	0.15
571.049	0.15
571.392	0.15
571.735	0.14
572.078	0.15
572.421	0.16
572.764	0.14
573.106	0.16
573.449	0.15
573.792	0.14
574.134	0.15
574.477	0.15
574.819	0.15
575.162	0.15
575.504	0.14
575.847	0.15
576.189	0.15
576.531	0.15
576.873	0.15
577.215	0.15
577.558	0.15
577.9	0.15
578.242	0.15
578.584	0.15
578.926	0.15
579.267	0.15
579.609	0.15
579.951	0.15
580.293	0.15
580.634	0.15
580.976	0.16
581.318	0.15
581.659	0.15
582.001	0.15
582.342	0.15
582.683	0.16
583.025	0.15
583.366	0.15
583.707	0.15
584.049	0.15
584.39	0.14
584.731	0.14
585.072	0.14
585.413	0.15
585.754	0.15
586.095	0.15
586.435	0.15
586.776	0.15
587.117	0.14
587.458	0.15
587.798	0.14
588.139	0.15
588.48	0.14
588.82	0.14
589.161	0.15
589.501	0.14
589.841	0.15
590.182	0.14
590.522	0.14
590.862	0.15
591.202	0.14
591.542	0.14
591.882	0.15
592.222	0.15
592.562	0.15
592.902	0.15
593.242	0.14
593.582	0.15
593.922	0.15
594.261	0.14
594.601	0.14
594.941	0.14
595.28	0.14
595.62	0.15
595.959	0.15
596.299	0.14
596.638	0.15
596.977	0.15
597.317	0.15
597.656	0.15
597.995	0.14
598.334	0.15
598.673	0.15
599.012	0.14
599.351	0.15
599.69	0.14
600.029	0.14
600.368	0.15
600.707	0.15
601.046	0.14
601.384	0.15
601.723	0.15
602.061	0.14
602.4	0.14
602.738	0.15
603.077	0.15
603.415	0.14
603.754	0.15
604.092	0.15
604.43	0.14
604.768	0.14
605.107	0.15
605.445	0.14
605.783	0.14
606.121	0.14
606.459	0.14
606.796	0.14
607.134	0.14
607.472	0.14
607.81	0.14
608.148	0.13
608.485	0.14
608.823	0.14
609.16	0.14
609.498	0.14
609.835	0.13
610.173	0.14
610.51	0.14
610.847	0.14
611.185	0.15
611.522	0.15
611.859	0.15
612.196	0.14
612.533	0.15
612.87	0.15
613.207	0.15
613.544	0.15
613.881	0.16
614.217	0.15
614.554	0.15
614.891	0.15
615.228	0.15
615.564	0.14
615.901	0.15
616.237	0.15
616.574	0.15
616.91	0.15
617.246	0.15
617.583	0.15
617.919	0.15
618.255	0.15
618.591	0.15
618.927	0.15
619.263	0.15
619.599	0.16
619.935	0.16
620.271	0.15
620.607	0.15
620.943	0.15
621.279	0.15
621.614	0.15
621.95	0.15
622.286	0.14
622.621	0.14
622.957	0.14
623.292	0.14
623.627	0.13
623.963	0.13
624.298	0.13
624.633	0.14
624.968	0.13
625.304	0.13
625.639	0.13
625.974	0.13
626.309	0.13
626.644	0.13
626.979	0.14
627.313	0.14
627.648	0.13
627.983	0.14
628.318	0.13
628.652	0.13
628.987	0.13
629.321	0.13
629.656	0.13
629.99	0.12
630.325	0.12
630.659	0.13
630.993	0.13
631.327	0.13
631.662	0.13
631.996	0.13
632.33	0.13
632.664	0.13
632.998	0.12
633.332	0.12
633.666	0.13
633.999	0.13
634.333	0.12
634.667	0.12
635.001	0.12
635.334	0.12
635.668	0.12
636.001	0.13
636.335	0.12
636.668	0.13
637.001	0.12
637.335	0.12
637.668	0.12
638.001	0.12
638.334	0.12
638.668	0.12
639.001	0.12
639.334	0.12
639.667	0.12
639.999	0.12
640.332	0.11
640.665	0.11
640.998	0.12
641.331	0.12
641.663	0.11
641.996	0.11
642.328	0.11
642.661	0.11
642.993	0.11
643.326	0.11
643.658	0.11
643.99	0.11
644.323	0.11
644.655	0.11
644.987	0.11
645.319	0.12
645.651	0.11
645.983	0.11
646.315	0.1
646.647	0.11
646.979	0.12
647.31	0.12
647.642	0.12
647.974	0.12
648.305	0.13
648.637	0.12
648.968	0.12
649.3	0.12
649.631	0.12
649.963	0.12
650.294	0.12
650.625	0.11
650.957	0.12
651.288	0.13
651.619	0.13
651.95	0.12
652.281	0.12
652.612	0.11
652.943	0.13
653.274	0.12
653.604	0.12
653.935	0.12
654.266	0.12
654.596	0.12
654.927	0.12
655.258	0.12
655.588	0.12
655.918	0.12
656.249	0.1
656.579	0.12
656.909	0.12
657.24	0.12
657.57	0.12
657.9	0.12
658.23	0.12
658.56	0.12
658.89	0.13
659.22	0.12
659.55	0.13
659.88	0.13
660.209	0.12
660.539	0.14
660.869	0.13
661.198	0.13
661.528	0.13
661.857	0.12
662.187	0.13
662.516	0.12
662.846	0.12
663.175	0.13
663.504	0.12
663.833	0.12
664.163	0.12
664.492	0.12
664.821	0.12
665.15	0.11
665.479	0.12
665.807	0.1
666.136	0.12
666.465	0.12
666.794	0.11
667.122	0.11
667.451	0.11
667.78	0.12
668.108	0.11
668.437	0.11
668.765	0.11
669.093	0.11
669.422	0.11
669.75	0.11
670.078	0.11
670.406	0.12
670.734	0.11
671.062	0.11
671.39	0.11
671.718	0.11
672.046	0.11
672.374	0.1
672.702	0.11
673.029	0.11
673.357	0.11
673.685	0.12
674.012	0.12
674.34	0.12
674.667	0.12
674.995	0.12
675.322	0.11
675.649	0.1
675.977	0.11
676.304	0.11
676.631	0.11
676.958	0.11
677.285	0.11
677.612	0.11
677.939	0.11
678.266	0.11
678.593	0.11
678.92	0.11
679.246	0.1
679.573	0.11
679.9	0.11
680.226	0.11
680.553	0.1
680.879	0.1
681.206	0.1
681.532	0.1
681.858	0.1
682.184	0.1
682.511	0.1
682.837	0.1
683.163	0.1
683.489	0.1
683.815	0.09
684.141	0.1
684.467	0.1
684.793	0.09
685.118	0.09
685.444	0.09
685.77	0.1
686.095	0.1
686.421	0.1
686.746	0.1
687.072	0.1
687.397	0.1
687.723	0.11
688.048	0.1
688.373	0.1
688.698	0.1
689.023	0.11
689.349	0.1
689.674	0.1
689.999	0.1
690.323	0.1
690.648	0.09
690.973	0.09
691.298	0.1
691.623	0.1
691.947	0.09
692.272	0.09
692.596	0.09
692.921	0.09
693.245	0.09
693.57	0.09
693.894	0.09
694.218	0.09
694.543	0.09
694.867	0.09
695.191	0.09
695.515	0.1
695.839	0.09
696.163	0.09
696.487	0.09
696.811	0.09
697.135	0.1
697.458	0.09
697.782	0.09
698.106	0.09
698.429	0.1
698.753	0.09
699.076	0.09
699.4	0.09
699.723	0.09
700.046	0.08
700.37	0.09
700.693	0.1
701.016	0.09
701.339	0.09
701.662	0.09
701.985	0.09
702.308	0.08
702.631	0.09
702.954	0.09
703.277	0.09
703.599	0.09
703.922	0.08
704.245	0.08
704.567	0.08
704.89	0.08
705.212	0.09
705.535	0.08
705.857	0.08
706.179	0.08
706.502	0.08
706.824	0.08
707.146	0.08
707.468	0.09
707.79	0.08
708.112	0.08
708.434	0.08
708.756	0.08
709.078	0.08
709.399	0.08
709.721	0.08
710.043	0.08
710.364	0.08
710.686	0.08
711.007	0.08
711.329	0.08
711.65	0.08
711.972	0.08
712.293	0.09
712.614	0.08
712.935	0.08
713.256	0.08
713.577	0.08
713.898	0.09
714.219	0.08
714.54	0.08
714.861	0.07
715.182	0.08
715.503	0.07
715.823	0.08
716.144	0.07
716.464	0.07
716.785	0.08
717.105	0.07
717.426	0.07
717.746	0.07
718.066	0.06
718.387	0.07
718.707	0.06
719.027	0.07
719.347	0.06
719.667	0.07
719.987	0.06
720.307	0.06
720.627	0.06
720.947	0.07
721.266	0.07
721.586	0.06
721.906	0.06
722.225	0.06
722.545	0.07
722.864	0.06
723.184	0.07
723.503	0.06
723.823	0.06
724.142	0.06
724.461	0.06
724.78	0.06
725.099	0.06
725.418	0.06
725.737	0.06
726.056	0.06
726.375	0.06
726.694	0.07
727.013	0.07
727.331	0.06
727.65	0.06
727.969	0.06
728.287	0.07
728.606	0.07
728.924	0.06
729.242	0.06
729.561	0.06
729.879	0.06
730.197	0.07
730.515	0.06
730.834	0.06
731.152	0.06
731.47	0.06
731.788	0.06
732.105	0.06
732.423	0.06
732.741	0.06
733.059	0.06
733.376	0.06
733.694	0.05
734.012	0.06
734.329	0.06
734.647	0.06
734.964	0.06
735.281	0.06
735.599	0.06
735.916	0.07
736.233	0.06
736.55	0.06
736.867	0.06
737.184	0.07
737.501	0.06
737.818	0.06
738.135	0.07
738.452	0.06
738.768	0.06
739.085	0.06
739.402	0.05
739.718	0.06
740.035	0.06
740.351	0.06
740.668	0.07
740.984	0.06
741.3	0.06
741.617	0.06
741.933	0.06
742.249	0.07
742.565	0.07
742.881	0.07
743.197	0.07
743.513	0.06
743.829	0.06
744.144	0.06
744.46	0.06
744.776	0.07
745.091	0.05
745.407	0.06
745.722	0.06
746.038	0.05
746.353	0.05
746.669	0.06
746.984	0.06
747.299	0.06
747.614	0.06
747.93	0.06
748.245	0.06
748.56	0.05
748.875	0.05
749.189	0.06
749.504	0.06
749.819	0.07
750.134	0.06
750.448	0.06
750.763	0.06
751.078	0.06
751.392	0.05
751.707	0.07
752.021	0.07
752.335	0.07
752.65	0.06
752.964	0.06
753.278	0.06
753.592	0.06
753.906	0.05
754.22	0.06
754.534	0.05
754.848	0.05
755.162	0.05
755.476	0.06
755.789	0.05
756.103	0.05
756.417	0.06
756.73	0.07
757.044	0.06
757.357	0.06
757.671	0.07
757.984	0.06
758.297	0.06
758.61	0.06
758.924	0.07
759.237	0.06
759.55	0.06
759.863	0.06
760.176	0.07
760.488	0.06
760.801	0.06
761.114	0.06
761.427	0.05
761.739	0.06
762.052	0.05
762.365	0.05
762.677	0.06
762.99	0.05
763.302	0.06
763.614	0.06
763.926	0.06
764.239	0.06
764.551	0.05
764.863	0.06
765.175	0.06
765.487	0.06
765.799	0.05
766.111	0.05
766.423	0.05
766.734	0.05
767.046	0.06
767.358	0.05
767.669	0.05
767.981	0.06
768.292	0.06
768.604	0.05
768.915	0.05
769.226	0.05
769.537	0.04
769.849	0.06
770.16	0.06
770.471	0.04
770.782	0.05
771.093	0.05
771.404	0.04
771.715	0.04
772.025	0.05
772.336	0.05
772.647	0.04
772.957	0.05
773.268	0.05
773.578	0.05
773.889	0.05
774.199	0.06
774.51	0.05
774.82	0.04
775.13	0.05
775.44	0.04
775.75	0.05
776.06	0.05
776.37	0.04
776.68	0.05
776.99	0.05
777.3	0.04
777.61	0.05
777.92	0.04
778.229	0.04
778.539	0.05
778.848	0.05
779.158	0.05
779.467	0.05
779.777	0.05
780.086	0.05
780.395	0.05
780.704	0.05
781.013	0.04
781.323	0.04
781.632	0.05
781.941	0.05
782.249	0.05
782.558	0.04
782.867	0.05
783.176	0.04
783.485	0.04
783.793	0.05
784.102	0.04
784.41	0.04
784.719	0.04
785.027	0.04
785.335	0.04
785.644	0.05
785.952	0.04
786.26	0.04
786.568	0.03
786.876	0.04
787.184	0.04
787.492	0.04
787.8	0.05
788.108	0.05
788.416	0.04
788.723	0.05
789.031	0.04
789.338	0.04
789.646	0.04
789.953	0.04
790.261	0.04
790.568	0.04
790.876	0.04
791.183	0.05
791.49	0.04
791.797	0.05
792.104	0.04
792.411	0.05
792.718	0.05
793.025	0.05
793.332	0.04
793.639	0.05
793.945	0.06
794.252	0.06
794.559	0.05
794.865	0.05
795.172	0.05
795.478	0.05
795.784	0.05
796.091	0.06
796.397	0.06
796.703	0.05
797.009	0.06
797.315	0.06
797.622	0.05
797.927	0.05
798.233	0.05
798.539	0.05
798.845	0.06
799.151	0.06
799.456	0.05
799.762	0.05
800.068	0.05
800.373	0.06
800.679	0.04
800.984	0.05
801.289	0.05
801.595	0.06
801.9	0.05
802.205	0.05
802.51	0.05
802.815	0.05
803.12	0.05
803.425	0.05
803.73	0.04
804.035	0.05
804.339	0.04
804.644	0.05
804.949	0.05
805.253	0.04
805.558	0.05
805.862	0.04
806.167	0.05
806.471	0.04
806.775	0.05
807.08	0.05
807.384	0.05
807.688	0.04
807.992	0.05
808.296	0.05
808.6	0.05
808.904	0.05
809.207	0.05
809.511	0.06
809.815	0.06
810.119	0.05
810.422	0.06
810.726	0.06
811.029	0.06
811.332	0.06
811.636	0.06
811.939	0.06
812.242	0.06
812.546	0.06
812.849	0.05
813.152	0.06
813.455	0.06
813.758	0.06
814.06	0.06
814.363	0.06
814.666	0.06
814.969	0.05
815.271	0.06
815.574	0.05
815.877	0.05
816.179	0.05
816.481	0.05
816.784	0.05
817.086	0.04
817.388	0.04
817.69	0.04
817.993	0.04
818.295	0.04
818.597	0.04
818.899	0.03
819.2	0.04
819.502	0.03
819.804	0.04
820.106	0.03
820.407	0.03
820.709	0.04
821.01	0.04
821.312	0.04
821.613	0.04
821.915	0.04
822.216	0.03
822.517	0.03
822.818	0.04
823.119	0.04
823.42	0.04
823.721	0.03
824.022	0.04
824.323	0.04
824.624	0.03
824.925	0.04
825.226	0.04
825.526	0.04
825.827	0.04
826.127	0.04
826.428	0.04
826.728	0.03
827.028	0.03
827.329	0.04
827.629	0.04
827.929	0.03
828.229	0.04
828.529	0.04
828.829	0.03
829.129	0.04
829.429	0.04
829.729	0.03
830.029	0.02
830.328	0.04
830.628	0.03
830.927	0.01
831.227	0.03
831.526	0.03
831.826	0.02
832.125	0.03
832.424	0.03
832.724	0.03
833.023	0.03
833.322	0.03
833.621	0.03
833.92	0.01
834.219	0.02
834.518	0.02
834.816	0.02
835.115	0.02
835.414	0.03
835.712	0.02
836.011	0.01
836.309	0.02
836.608	0.02
836.906	0.01
837.205	0
837.503	0.01
837.801	0.01
838.099	0.01
838.397	-0
838.695	0
838.993	0
839.291	-0
839.589	0
839.887	-0
840.184	-0.01
840.482	-0.01
840.78	-0
841.077	-0.01
841.375	-0.01
841.672	-0.01
841.969	-0.01
842.267	-0.02
842.564	-0.01
842.861	-0.01
843.158	-0.02
843.455	-0.04
843.752	-0.03
844.049	-0.03
844.346	-0.03
844.643	-0.03
844.94	-0.03
845.236	-0.03
845.533	-0.03
845.83	-0.03
846.126	-0.05
846.423	-0.03
846.719	-0.05
847.015	-0.03
847.312	-0.04
847.608	-0.05
847.904	-0.05
848.2	-0.06
848.496	-0.05
848.792	-0.05
849.088	-0.05
849.384	-0.05
849.68	-0.06
849.975	-0.06
850.271	-0.06
850.567	-0.07
850.862	-0.06
851.158	-0.07
851.453	-0.06
851.748	-0.07
852.044	-0.07
852.339	-0.07
852.634	-0.08
852.929	-0.07
853.224	-0.07
853.519	-0.07
853.814	-0.07
854.109	-0.08
854.404	-0.07
854.699	-0.07
854.994	-0.07
855.288	-0.07
855.583	-0.07
855.877	-0.08
856.172	-0.07
856.466	-0.08
856.76	-0.08
857.055	-0.08
857.349	-0.09
857.643	-0.09
857.937	-0.1
858.231	-0.09
858.525	-0.1
858.819	-0.09
859.113	-0.1
859.407	-0.1
859.701	-0.1
859.994	-0.11
860.288	-0.09
860.581	-0.1
860.875	-0.11
861.168	-0.1
861.462	-0.11
861.755	-0.11
862.048	-0.12
862.341	-0.12
862.634	-0.1
862.928	-0.1
863.221	-0.11
863.513	-0.12
863.806	-0.11
864.099	-0.12
864.392	-0.13
864.685	-0.12
864.977	-0.12
865.27	-0.11
865.562	-0.12
865.855	-0.12
866.147	-0.13
866.44	-0.12
866.732	-0.13
867.024	-0.14
867.316	-0.13
867.608	-0.14
867.9	-0.13
868.192	-0.13
868.484	-0.14
868.776	-0.14
869.068	-0.14
869.359	-0.14
869.651	-0.14
869.943	-0.16
870.234	-0.15
870.526	-0.16
870.817	-0.17
871.108	-0.15
871.4	-0.16
871.691	-0.14
871.982	-0.18
872.273	-0.17
872.564	-0.17
872.855	-0.17
873.146	-0.17
873.437	-0.17
873.728	-0.19
874.019	-0.17
874.309	-0.17
874.6	-0.17
874.89	-0.17
875.181	-0.18
875.471	-0.16
875.762	-0.17
876.052	-0.18
876.342	-0.16
876.632	-0.17
876.922	-0.17
877.213	-0.16
877.503	-0.18
877.792	-0.17
878.082	-0.18
878.372	-0.17
878.662	-0.18
878.952	-0.18
879.241	-0.17
879.531	-0.18
879.82	-0.17
880.11	-0.17
880.399	-0.18
880.688	-0.16
880.978	-0.16
881.267	-0.16
