Data from 12-12-AQDScycling_Absorbance__633__00633.txt Node

Date: Tue Dec 12 13:34:59 EST 2023
User: kyuminlee
Spectrometer: FLMS00943
Trigger mode: 0
Integration Time (sec): 1.000000E-1
Scans to average: 1
Electric dark correction enabled: true
Nonlinearity correction enabled: false
Boxcar width: 0
XAxis mode: Wavelengths
Number of Pixels in Spectrum: 2048
>>>>>Begin Spectral Data<<<<<
179.651	-0.24
180.037	-0.24
180.424	-0.24
180.81	-0.24
181.197	1.06
181.583	-0
181.97	-0.58
182.356	-0
182.743	-0
183.129	0.18
183.515	0.79
183.901	-2.71
184.288	-0
184.674	-0
185.06	-0
185.446	0.01
185.832	-1.65
186.218	-0
186.604	-0.11
186.99	-0
187.376	0.27
187.762	-0.13
188.148	0.5
188.534	0.07
188.92	0.17
189.305	0.13
189.691	0.13
190.077	0.12
190.463	0.09
190.848	-0.02
191.234	0.17
191.619	0.1
192.005	0.17
192.391	0.07
192.776	0.21
193.161	0.17
193.547	0.2
193.932	0.15
194.318	0.1
194.703	0.23
195.088	0.38
195.473	0.13
195.859	0.24
196.244	0.24
196.629	0.11
197.014	-0.01
197.399	0.24
197.784	0.12
198.169	0.26
198.554	0.16
198.939	0.17
199.324	0.18
199.709	0.08
200.094	0.12
200.478	0.18
200.863	0.14
201.248	0.16
201.633	0.19
202.017	0.06
202.402	0.23
202.787	0.07
203.171	0.14
203.556	0.18
203.94	0.08
204.325	0.28
204.709	0.26
205.093	0.13
205.478	0.23
205.862	0.11
206.246	0.14
206.631	0.21
207.015	0.21
207.399	0.37
207.783	0.13
208.167	0.09
208.551	0.19
208.935	0.18
209.319	0.08
209.703	0.18
210.087	0.36
210.471	0.14
210.855	0.16
211.239	0.29
211.623	0.32
212.007	0.29
212.39	0.37
212.774	0.29
213.158	0.17
213.541	0.27
213.925	0.32
214.309	0.37
214.692	0.28
215.076	0.29
215.459	0.23
215.842	0.1
216.226	0.23
216.609	0.33
216.993	0.25
217.376	0.45
217.759	0.23
218.142	0.46
218.525	0.48
218.909	0.39
219.292	0.46
219.675	0.44
220.058	0.36
220.441	0.69
220.824	0.5
221.207	0.46
221.59	0.38
221.973	0.47
222.355	0.55
222.738	0.71
223.121	0.58
223.504	0.52
223.886	0.74
224.269	0.68
224.652	0.52
225.034	0.85
225.417	0.65
225.799	0.75
226.182	0.92
226.564	0.77
226.947	0.8
227.329	0.8
227.711	1.09
228.094	0.94
228.476	0.8
228.858	0.8
229.24	0.78
229.623	0.94
230.005	0.87
230.387	0.85
230.769	0.87
231.151	1.08
231.533	1.2
231.915	1.05
232.297	1.13
232.679	1.18
233.061	0.96
233.442	0.96
233.824	1.05
234.206	1.11
234.588	1.1
234.969	1.01
235.351	1.02
235.733	1.1
236.114	1.01
236.496	1.13
236.877	1.15
237.259	1.08
237.64	1.03
238.022	1.06
238.403	1.01
238.784	0.91
239.165	1.05
239.547	1.18
239.928	1.22
240.309	1.1
240.69	1.11
241.071	1.23
241.452	1.19
241.834	0.99
242.215	1.26
242.595	1.12
242.976	1.08
243.357	1.19
243.738	1.15
244.119	1.27
244.5	1.17
244.881	1.35
245.261	1.27
245.642	1.28
246.023	1.21
246.403	1.12
246.784	1.33
247.164	1.33
247.545	1.26
247.925	1.37
248.306	1.21
248.686	1.36
249.067	1.3
249.447	1.29
249.827	1.79
250.207	1.38
250.588	1.19
250.968	1.48
251.348	1.29
251.728	1.64
252.108	1.3
252.488	1.3
252.868	1.28
253.248	1.29
253.628	1.29
254.008	1.73
254.388	1.23
254.768	1.24
255.147	1.48
255.527	1.33
255.907	1.31
256.287	1.31
256.666	1.57
257.046	1.53
257.425	1.55
257.805	1.33
258.184	1.38
258.564	1.36
258.943	1.29
259.323	1.4
259.702	1.37
260.081	1.6
260.461	1.43
260.84	1.38
261.219	1.77
261.598	1.61
261.977	1.53
262.356	1.62
262.736	1.49
263.115	1.54
263.494	1.37
263.873	1.41
264.251	1.38
264.63	1.57
265.009	1.54
265.388	1.31
265.767	1.32
266.145	1.45
266.524	1.4
266.903	1.49
267.281	1.46
267.66	1.72
268.039	1.52
268.417	1.41
268.796	1.44
269.174	1.6
269.552	1.35
269.931	1.53
270.309	1.55
270.687	1.9
271.066	1.57
271.444	1.56
271.822	1.47
272.2	1.44
272.578	1.35
272.956	1.56
273.334	1.39
273.712	1.42
274.09	1.37
274.468	1.31
274.846	1.32
275.224	1.33
275.602	1.54
275.98	1.79
276.357	1.43
276.735	1.5
277.113	1.52
277.49	1.32
277.868	1.25
278.246	1.4
278.623	1.31
279.001	1.38
279.378	1.58
279.756	1.41
280.133	1.57
280.51	1.57
280.888	1.5
281.265	1.27
281.642	1.54
282.019	1.67
282.396	1.63
282.773	1.46
283.151	1.48
283.528	1.4
283.905	1.52
284.282	1.65
284.659	1.51
285.035	1.45
285.412	1.4
285.789	1.43
286.166	1.52
286.543	1.47
286.919	1.47
287.296	1.57
287.673	1.75
288.049	1.49
288.426	1.55
288.802	1.48
289.179	1.54
289.555	1.76
289.932	1.52
290.308	1.41
290.684	1.46
291.061	1.39
291.437	1.45
291.813	1.3
292.189	1.37
292.565	1.43
292.942	1.47
293.318	1.49
293.694	1.41
294.07	1.32
294.446	1.42
294.822	1.51
295.197	1.52
295.573	1.57
295.949	1.68
296.325	1.49
296.701	1.59
297.076	1.65
297.452	1.5
297.828	1.47
298.203	1.37
298.579	1.41
298.954	1.48
299.33	1.36
299.705	1.42
300.081	1.34
300.456	1.35
300.831	1.37
301.206	1.38
301.582	1.53
301.957	1.4
302.332	1.41
302.707	1.29
303.082	1.26
303.457	1.35
303.832	1.35
304.207	1.3
304.582	1.25
304.957	1.27
305.332	1.29
305.707	1.31
306.082	1.24
306.456	1.26
306.831	1.26
307.206	1.24
307.58	1.2
307.955	1.13
308.33	1.25
308.704	1.22
309.079	1.16
309.453	1.24
309.828	1.2
310.202	1.15
310.576	1.14
310.951	1.15
311.325	1.14
311.699	1.07
312.073	1.11
312.447	1.12
312.821	1.09
313.196	1.16
313.57	1.1
313.944	1.12
314.317	1.05
314.691	1.14
315.065	1.16
315.439	1.17
315.813	1.07
316.187	1.1
316.56	1.19
316.934	1.15
317.308	1.07
317.681	1.08
318.055	1.09
318.428	1.08
318.802	1.11
319.175	1.07
319.549	1.12
319.922	1.06
320.295	1.06
320.669	1.14
321.042	1.15
321.415	1.16
321.788	1.11
322.162	1.08
322.535	1.12
322.908	1.11
323.281	1.07
323.654	1.11
324.027	1.06
324.4	1.16
324.773	1.12
325.145	1.07
325.518	1.11
325.891	1.09
326.264	1.12
326.636	1.1
327.009	1.14
327.382	1.09
327.754	1.14
328.127	1.06
328.499	1.12
328.872	1.19
329.244	1.15
329.616	1.08
329.989	1.11
330.361	1.14
330.733	1.08
331.106	1.08
331.478	1.15
331.85	1.14
332.222	1.09
332.594	1.2
332.966	1.16
333.338	1.21
333.71	1.18
334.082	1.22
334.454	1.15
334.826	1.21
335.197	1.19
335.569	1.14
335.941	1.16
336.312	1.15
336.684	1.23
337.056	1.18
337.427	1.25
337.799	1.24
338.17	1.25
338.542	1.22
338.913	1.26
339.284	1.31
339.656	1.23
340.027	1.2
340.398	1.23
340.769	1.27
341.141	1.34
341.512	1.23
341.883	1.27
342.254	1.23
342.625	1.23
342.996	1.19
343.367	1.26
343.738	1.26
344.108	1.25
344.479	1.33
344.85	1.17
345.221	1.27
345.591	1.17
345.962	1.19
346.333	1.32
346.703	1.18
347.074	1.24
347.444	1.16
347.815	1.28
348.185	1.25
348.556	1.22
348.926	1.27
349.296	1.24
349.666	1.24
350.037	1.22
350.407	1.18
350.777	1.28
351.147	1.31
351.517	1.33
351.887	1.31
352.257	1.31
352.627	1.38
352.997	1.35
353.367	1.37
353.737	1.44
354.106	1.31
354.476	1.3
354.846	1.36
355.216	1.46
355.585	1.44
355.955	1.47
356.324	1.49
356.694	1.32
357.063	1.35
357.433	1.5
357.802	1.45
358.171	1.43
358.541	1.37
358.91	1.49
359.279	1.57
359.648	1.51
360.017	1.54
360.387	1.56
360.756	1.39
361.125	1.65
361.494	1.52
361.863	1.48
362.231	1.41
362.6	1.47
362.969	1.63
363.338	1.5
363.707	1.65
364.075	1.76
364.444	1.43
364.813	1.48
365.181	1.53
365.55	1.47
365.918	1.63
366.287	1.56
366.655	1.61
367.024	1.58
367.392	1.49
367.76	1.56
368.128	1.53
368.497	1.53
368.865	1.49
369.233	1.56
369.601	1.49
369.969	1.53
370.337	1.52
370.705	1.51
371.073	1.48
371.441	1.4
371.809	1.51
372.177	1.56
372.544	1.67
372.912	1.62
373.28	1.56
373.647	1.59
374.015	1.92
374.383	1.97
374.75	1.54
375.118	1.52
375.485	1.67
375.853	1.77
376.22	1.66
376.587	1.62
376.955	1.76
377.322	1.62
377.689	1.52
378.056	1.69
378.423	1.52
378.79	1.56
379.157	1.53
379.524	1.58
379.891	1.52
380.258	1.58
380.625	1.53
380.992	1.57
381.359	1.51
381.726	1.74
382.092	1.45
382.459	1.55
382.826	1.49
383.192	1.69
383.559	1.61
383.925	1.6
384.292	1.71
384.658	1.87
385.025	1.54
385.391	1.8
385.757	1.67
386.123	1.72
386.49	1.59
386.856	1.81
387.222	1.78
387.588	1.61
387.954	1.62
388.32	1.67
388.686	1.66
389.052	1.64
389.418	1.63
389.784	1.55
390.15	1.77
390.515	1.44
390.881	1.7
391.247	1.61
391.613	1.71
391.978	1.57
392.344	1.76
392.709	1.56
393.075	1.66
393.44	1.59
393.806	1.49
394.171	1.6
394.536	1.55
394.902	1.58
395.267	1.56
395.632	1.4
395.997	1.52
396.362	1.53
396.727	1.64
397.092	1.47
397.457	1.61
397.822	1.55
398.187	1.58
398.552	1.49
398.917	1.56
399.282	1.53
399.646	1.66
400.011	1.69
400.376	1.59
400.74	1.48
401.105	1.65
401.47	1.57
401.834	1.59
402.199	1.63
402.563	1.46
402.927	1.48
403.292	1.64
403.656	1.57
404.02	1.64
404.384	1.82
404.749	1.52
405.113	1.62
405.477	1.64
405.841	1.48
406.205	1.68
406.569	1.58
406.933	1.55
407.296	1.5
407.66	1.56
408.024	1.51
408.388	1.59
408.752	1.69
409.115	1.86
409.479	1.78
409.842	1.52
410.206	1.46
410.569	1.52
410.933	1.46
411.296	1.47
411.66	1.68
412.023	1.27
412.386	1.55
412.749	1.49
413.113	1.7
413.476	1.62
413.839	1.47
414.202	1.62
414.565	1.49
414.928	1.5
415.291	1.35
415.654	1.5
416.017	1.64
416.38	1.41
416.742	1.41
417.105	1.58
417.468	1.41
417.83	1.45
418.193	1.56
418.556	1.45
418.918	1.49
419.281	1.44
419.643	1.44
420.005	1.67
420.368	1.53
420.73	1.4
421.092	1.61
421.455	1.6
421.817	1.38
422.179	1.45
422.541	1.58
422.903	1.49
423.265	1.54
423.627	1.48
423.989	1.48
424.351	1.46
424.713	1.57
425.075	1.41
425.436	1.41
425.798	1.49
426.16	1.51
426.521	1.48
426.883	1.43
427.245	1.52
427.606	1.42
427.967	1.36
428.329	1.41
428.69	1.58
429.052	1.44
429.413	1.54
429.774	1.63
430.135	1.42
430.497	1.58
430.858	1.42
431.219	1.49
431.58	1.44
431.941	1.42
432.302	1.39
432.663	1.5
433.024	1.5
433.384	1.4
433.745	1.44
434.106	1.55
434.467	1.45
434.827	1.47
435.188	1.42
435.548	1.66
435.909	1.49
436.269	1.48
436.63	1.39
436.99	1.4
437.351	1.34
437.711	1.39
438.071	1.34
438.431	1.37
438.792	1.39
439.152	1.45
439.512	1.37
439.872	1.35
440.232	1.38
440.592	1.39
440.952	1.44
441.312	1.3
441.671	1.39
442.031	1.37
442.391	1.3
442.751	1.4
443.11	1.36
443.47	1.31
443.83	1.28
444.189	1.27
444.549	1.29
444.908	1.26
445.267	1.27
445.627	1.26
445.986	1.27
446.345	1.18
446.705	1.27
447.064	1.25
447.423	1.24
447.782	1.26
448.141	1.24
448.5	1.17
448.859	1.19
449.218	1.21
449.577	1.2
449.936	1.2
450.295	1.18
450.653	1.18
451.012	1.17
451.371	1.17
451.729	1.12
452.088	1.16
452.447	1.12
452.805	1.13
453.163	1.14
453.522	1.11
453.88	1.09
454.239	1.1
454.597	1.08
454.955	1.06
455.313	1.07
455.671	1.08
456.029	1.05
456.388	1.02
456.746	1.02
457.104	1.02
457.461	0.99
457.819	1.01
458.177	0.97
458.535	0.96
458.893	0.96
459.25	0.94
459.608	0.93
459.966	0.91
460.323	0.91
460.681	0.89
461.038	0.88
461.396	0.87
461.753	0.86
462.111	0.85
462.468	0.84
462.825	0.83
463.182	0.81
463.54	0.79
463.897	0.81
464.254	0.78
464.611	0.76
464.968	0.78
465.325	0.76
465.682	0.74
466.039	0.74
466.395	0.73
466.752	0.71
467.109	0.71
467.466	0.7
467.822	0.68
468.179	0.67
468.535	0.66
468.892	0.66
469.248	0.64
469.605	0.62
469.961	0.62
470.318	0.63
470.674	0.6
471.03	0.6
471.386	0.58
471.743	0.58
472.099	0.57
472.455	0.57
472.811	0.55
473.167	0.55
473.523	0.53
473.879	0.52
474.235	0.52
474.59	0.51
474.946	0.5
475.302	0.49
475.657	0.48
476.013	0.47
476.369	0.47
476.724	0.47
477.08	0.46
477.435	0.45
477.791	0.44
478.146	0.44
478.501	0.43
478.857	0.42
479.212	0.41
479.567	0.41
479.922	0.4
480.277	0.39
480.632	0.38
480.987	0.39
481.342	0.38
481.697	0.37
482.052	0.36
482.407	0.36
482.762	0.34
483.116	0.34
483.471	0.34
483.826	0.32
484.18	0.33
484.535	0.32
484.89	0.31
485.244	0.31
485.598	0.31
485.953	0.3
486.307	0.3
486.661	0.29
487.016	0.29
487.37	0.29
487.724	0.28
488.078	0.28
488.432	0.27
488.786	0.26
489.14	0.26
489.494	0.25
489.848	0.26
490.202	0.25
490.556	0.25
490.91	0.24
491.263	0.24
491.617	0.24
491.971	0.24
492.324	0.23
492.678	0.23
493.031	0.23
493.385	0.22
493.738	0.22
494.091	0.22
494.445	0.22
494.798	0.22
495.151	0.21
495.504	0.21
495.857	0.21
496.21	0.21
496.564	0.2
496.916	0.2
497.269	0.18
497.622	0.19
497.975	0.19
498.328	0.19
498.681	0.18
499.033	0.18
499.386	0.18
499.739	0.18
500.091	0.17
500.444	0.17
500.796	0.18
501.149	0.17
501.501	0.17
501.854	0.17
502.206	0.17
502.558	0.17
502.91	0.17
503.263	0.17
503.615	0.17
503.967	0.17
504.319	0.17
504.671	0.16
505.023	0.15
505.375	0.16
505.726	0.16
506.078	0.16
506.43	0.16
506.782	0.15
507.133	0.15
507.485	0.15
507.837	0.16
508.188	0.16
508.54	0.16
508.891	0.16
509.243	0.15
509.594	0.15
509.945	0.15
510.296	0.14
510.648	0.15
510.999	0.14
511.35	0.15
511.701	0.14
512.052	0.15
512.403	0.15
512.754	0.15
513.105	0.15
513.456	0.14
513.807	0.14
514.157	0.15
514.508	0.15
514.859	0.13
515.209	0.13
515.56	0.14
515.91	0.14
516.261	0.14
516.611	0.13
516.962	0.14
517.312	0.14
517.662	0.14
518.013	0.14
518.363	0.15
518.713	0.14
519.063	0.14
519.413	0.14
519.763	0.14
520.113	0.14
520.463	0.15
520.813	0.15
521.163	0.14
521.512	0.14
521.862	0.14
522.212	0.14
522.562	0.15
522.911	0.14
523.261	0.14
523.61	0.14
523.96	0.14
524.309	0.14
524.658	0.15
525.008	0.14
525.357	0.14
525.706	0.15
526.056	0.14
526.405	0.14
526.754	0.14
527.103	0.13
527.452	0.14
527.801	0.15
528.15	0.14
528.499	0.14
528.847	0.14
529.196	0.15
529.545	0.15
529.893	0.14
530.242	0.15
530.591	0.15
530.939	0.15
531.288	0.15
531.636	0.15
531.985	0.15
532.333	0.14
532.681	0.15
533.029	0.15
533.378	0.15
533.726	0.14
534.074	0.15
534.422	0.14
534.77	0.15
535.118	0.15
535.466	0.14
535.814	0.14
536.162	0.15
536.509	0.15
536.857	0.14
537.205	0.16
537.552	0.15
537.9	0.15
538.248	0.14
538.595	0.16
538.943	0.15
539.29	0.14
539.637	0.14
539.985	0.15
540.332	0.15
540.679	0.15
541.026	0.14
541.373	0.15
541.721	0.14
542.068	0.15
542.415	0.14
542.762	0.14
543.108	0.13
543.455	0.14
543.802	0.14
544.149	0.13
544.496	0.14
544.842	0.14
545.189	0.13
545.535	0.13
545.882	0.14
546.228	0.14
546.575	0.13
546.921	0.13
547.267	0.13
547.614	0.13
547.96	0.14
548.306	0.14
548.652	0.13
548.998	0.14
549.344	0.14
549.69	0.13
550.036	0.14
550.382	0.14
550.728	0.14
551.074	0.15
551.42	0.14
551.765	0.14
552.111	0.14
552.457	0.15
552.802	0.14
553.148	0.13
553.493	0.13
553.839	0.14
554.184	0.14
554.529	0.14
554.875	0.14
555.22	0.15
555.565	0.14
555.91	0.14
556.255	0.14
556.6	0.15
556.945	0.14
557.29	0.14
557.635	0.15
557.98	0.14
558.325	0.14
558.67	0.15
559.014	0.15
559.359	0.14
559.704	0.14
560.048	0.13
560.393	0.14
560.737	0.13
561.082	0.13
561.426	0.14
561.77	0.14
562.115	0.13
562.459	0.14
562.803	0.13
563.147	0.14
563.491	0.14
563.835	0.14
564.179	0.15
564.523	0.13
564.867	0.14
565.211	0.14
565.555	0.15
565.899	0.15
566.242	0.14
566.586	0.14
566.93	0.14
567.273	0.15
567.617	0.14
567.96	0.15
568.304	0.15
568.647	0.15
568.99	0.15
569.334	0.15
569.677	0.15
570.02	0.15
570.363	0.15
570.706	0.14
571.049	0.15
571.392	0.16
571.735	0.14
572.078	0.15
572.421	0.16
572.764	0.14
573.106	0.15
573.449	0.14
573.792	0.14
574.134	0.14
574.477	0.14
574.819	0.14
575.162	0.14
575.504	0.15
575.847	0.15
576.189	0.15
576.531	0.14
576.873	0.14
577.215	0.14
577.558	0.15
577.9	0.14
578.242	0.15
578.584	0.13
578.926	0.15
579.267	0.14
579.609	0.15
579.951	0.14
580.293	0.14
580.634	0.15
580.976	0.15
581.318	0.14
581.659	0.14
582.001	0.15
582.342	0.14
582.683	0.14
583.025	0.14
583.366	0.14
583.707	0.14
584.049	0.14
584.39	0.14
584.731	0.13
585.072	0.13
585.413	0.14
585.754	0.14
586.095	0.15
586.435	0.13
586.776	0.14
587.117	0.13
587.458	0.13
587.798	0.14
588.139	0.14
588.48	0.14
588.82	0.14
589.161	0.14
589.501	0.14
589.841	0.14
590.182	0.14
590.522	0.14
590.862	0.14
591.202	0.14
591.542	0.14
591.882	0.14
592.222	0.14
592.562	0.14
592.902	0.14
593.242	0.14
593.582	0.15
593.922	0.14
594.261	0.13
594.601	0.13
594.941	0.13
595.28	0.14
595.62	0.14
595.959	0.13
596.299	0.13
596.638	0.14
596.977	0.13
597.317	0.14
597.656	0.14
597.995	0.14
598.334	0.15
598.673	0.15
599.012	0.14
599.351	0.15
599.69	0.14
600.029	0.15
600.368	0.15
600.707	0.15
601.046	0.14
601.384	0.15
601.723	0.14
602.061	0.14
602.4	0.14
602.738	0.15
603.077	0.14
603.415	0.13
603.754	0.14
604.092	0.14
604.43	0.14
604.768	0.14
605.107	0.14
605.445	0.13
605.783	0.13
606.121	0.13
606.459	0.14
606.796	0.14
607.134	0.13
607.472	0.13
607.81	0.14
608.148	0.13
608.485	0.14
608.823	0.14
609.16	0.13
609.498	0.14
609.835	0.14
610.173	0.13
610.51	0.13
610.847	0.13
611.185	0.14
611.522	0.14
611.859	0.14
612.196	0.13
612.533	0.14
612.87	0.15
613.207	0.15
613.544	0.14
613.881	0.15
614.217	0.15
614.554	0.14
614.891	0.15
615.228	0.14
615.564	0.15
615.901	0.14
616.237	0.14
616.574	0.14
616.91	0.15
617.246	0.14
617.583	0.15
617.919	0.14
618.255	0.15
618.591	0.14
618.927	0.15
619.263	0.15
619.599	0.15
619.935	0.14
620.271	0.14
620.607	0.15
620.943	0.14
621.279	0.15
621.614	0.14
621.95	0.15
622.286	0.14
622.621	0.14
622.957	0.14
623.292	0.14
623.627	0.14
623.963	0.13
624.298	0.14
624.633	0.14
624.968	0.13
625.304	0.13
625.639	0.14
625.974	0.13
626.309	0.13
626.644	0.14
626.979	0.14
627.313	0.14
627.648	0.13
627.983	0.14
628.318	0.13
628.652	0.13
628.987	0.13
629.321	0.13
629.656	0.12
629.99	0.12
630.325	0.13
630.659	0.13
630.993	0.12
631.327	0.13
631.662	0.12
631.996	0.12
632.33	0.12
632.664	0.12
632.998	0.12
633.332	0.12
633.666	0.12
633.999	0.12
634.333	0.12
634.667	0.12
635.001	0.12
635.334	0.12
635.668	0.12
636.001	0.12
636.335	0.12
636.668	0.12
637.001	0.12
637.335	0.12
637.668	0.12
638.001	0.12
638.334	0.12
638.668	0.12
639.001	0.12
639.334	0.12
639.667	0.12
639.999	0.12
640.332	0.12
640.665	0.12
640.998	0.12
641.331	0.12
641.663	0.12
641.996	0.11
642.328	0.12
642.661	0.12
642.993	0.12
643.326	0.12
643.658	0.12
643.99	0.11
644.323	0.12
644.655	0.12
644.987	0.11
645.319	0.12
645.651	0.12
645.983	0.11
646.315	0.11
646.647	0.11
646.979	0.12
647.31	0.12
647.642	0.12
647.974	0.12
648.305	0.13
648.637	0.12
648.968	0.11
649.3	0.12
649.631	0.12
649.963	0.12
650.294	0.12
650.625	0.11
650.957	0.13
651.288	0.12
651.619	0.12
651.95	0.13
652.281	0.12
652.612	0.13
652.943	0.12
653.274	0.12
653.604	0.12
653.935	0.12
654.266	0.12
654.596	0.11
654.927	0.12
655.258	0.12
655.588	0.12
655.918	0.12
656.249	0.1
656.579	0.11
656.909	0.11
657.24	0.11
657.57	0.11
657.9	0.11
658.23	0.11
658.56	0.12
658.89	0.12
659.22	0.11
659.55	0.12
659.88	0.11
660.209	0.11
660.539	0.12
660.869	0.12
661.198	0.12
661.528	0.11
661.857	0.11
662.187	0.11
662.516	0.12
662.846	0.11
663.175	0.11
663.504	0.11
663.833	0.11
664.163	0.11
664.492	0.11
664.821	0.11
665.15	0.11
665.479	0.12
665.807	0.11
666.136	0.12
666.465	0.11
666.794	0.11
667.122	0.11
667.451	0.11
667.78	0.11
668.108	0.11
668.437	0.11
668.765	0.12
669.093	0.12
669.422	0.11
669.75	0.11
670.078	0.11
670.406	0.12
670.734	0.12
671.062	0.12
671.39	0.11
671.718	0.11
672.046	0.11
672.374	0.11
672.702	0.11
673.029	0.11
673.357	0.11
673.685	0.11
674.012	0.11
674.34	0.1
674.667	0.11
674.995	0.11
675.322	0.11
675.649	0.11
675.977	0.11
676.304	0.1
676.631	0.11
676.958	0.1
677.285	0.1
677.612	0.1
677.939	0.1
678.266	0.11
678.593	0.11
678.92	0.1
679.246	0.11
679.573	0.1
679.9	0.1
680.226	0.1
680.553	0.1
680.879	0.1
681.206	0.1
681.532	0.1
681.858	0.1
682.184	0.1
682.511	0.11
682.837	0.1
683.163	0.1
683.489	0.11
683.815	0.1
684.141	0.11
684.467	0.1
684.793	0.1
685.118	0.1
685.444	0.1
685.77	0.1
686.095	0.1
686.421	0.1
686.746	0.1
687.072	0.1
687.397	0.09
687.723	0.1
688.048	0.1
688.373	0.1
688.698	0.1
689.023	0.1
689.349	0.1
689.674	0.1
689.999	0.1
690.323	0.09
690.648	0.09
690.973	0.08
691.298	0.09
691.623	0.1
691.947	0.1
692.272	0.09
692.596	0.1
692.921	0.1
693.245	0.1
693.57	0.1
693.894	0.11
694.218	0.1
694.543	0.1
694.867	0.1
695.191	0.1
695.515	0.1
695.839	0.1
696.163	0.1
696.487	0.1
696.811	0.1
697.135	0.1
697.458	0.1
697.782	0.1
698.106	0.1
698.429	0.09
698.753	0.09
699.076	0.09
699.4	0.09
699.723	0.1
700.046	0.09
700.37	0.1
700.693	0.09
701.016	0.09
701.339	0.09
701.662	0.1
701.985	0.1
702.308	0.09
702.631	0.09
702.954	0.09
703.277	0.1
703.599	0.09
703.922	0.09
704.245	0.09
704.567	0.09
704.89	0.09
705.212	0.09
705.535	0.08
705.857	0.08
706.179	0.07
706.502	0.08
706.824	0.08
707.146	0.08
707.468	0.09
707.79	0.09
708.112	0.09
708.434	0.09
708.756	0.09
709.078	0.09
709.399	0.09
709.721	0.08
710.043	0.09
710.364	0.09
710.686	0.09
711.007	0.09
711.329	0.09
711.65	0.09
711.972	0.09
712.293	0.09
712.614	0.09
712.935	0.09
713.256	0.09
713.577	0.1
713.898	0.09
714.219	0.09
714.54	0.09
714.861	0.07
715.182	0.09
715.503	0.08
715.823	0.09
716.144	0.08
716.464	0.08
716.785	0.07
717.105	0.08
717.426	0.08
717.746	0.08
718.066	0.07
718.387	0.08
718.707	0.07
719.027	0.09
719.347	0.07
719.667	0.08
719.987	0.07
720.307	0.07
720.627	0.07
720.947	0.08
721.266	0.08
721.586	0.07
721.906	0.08
722.225	0.07
722.545	0.07
722.864	0.08
723.184	0.08
723.503	0.07
723.823	0.09
724.142	0.07
724.461	0.08
724.78	0.07
725.099	0.07
725.418	0.08
725.737	0.07
726.056	0.08
726.375	0.07
726.694	0.07
727.013	0.08
727.331	0.07
727.65	0.07
727.969	0.07
728.287	0.08
728.606	0.07
728.924	0.07
729.242	0.07
729.561	0.07
729.879	0.07
730.197	0.07
730.515	0.07
730.834	0.07
731.152	0.07
731.47	0.08
731.788	0.07
732.105	0.07
732.423	0.08
732.741	0.08
733.059	0.07
733.376	0.08
733.694	0.06
734.012	0.08
734.329	0.08
734.647	0.07
734.964	0.08
735.281	0.08
735.599	0.08
735.916	0.08
736.233	0.07
736.55	0.07
736.867	0.08
737.184	0.08
737.501	0.07
737.818	0.08
738.135	0.07
738.452	0.07
738.768	0.07
739.085	0.08
739.402	0.07
739.718	0.07
740.035	0.07
740.351	0.07
740.668	0.08
740.984	0.07
741.3	0.07
741.617	0.07
741.933	0.07
742.249	0.08
742.565	0.08
742.881	0.08
743.197	0.08
743.513	0.07
743.829	0.07
744.144	0.07
744.46	0.07
744.776	0.07
745.091	0.07
745.407	0.07
745.722	0.06
746.038	0.06
746.353	0.05
746.669	0.07
746.984	0.06
747.299	0.06
747.614	0.07
747.93	0.07
748.245	0.05
748.56	0.06
748.875	0.06
749.189	0.06
749.504	0.06
749.819	0.06
750.134	0.06
750.448	0.06
750.763	0.06
751.078	0.05
751.392	0.06
751.707	0.08
752.021	0.07
752.335	0.08
752.65	0.07
752.964	0.06
753.278	0.07
753.592	0.07
753.906	0.06
754.22	0.07
754.534	0.06
754.848	0.06
755.162	0.06
755.476	0.07
755.789	0.07
756.103	0.06
756.417	0.07
756.73	0.07
757.044	0.06
757.357	0.06
757.671	0.07
757.984	0.07
758.297	0.07
758.61	0.07
758.924	0.07
759.237	0.06
759.55	0.07
759.863	0.06
760.176	0.07
760.488	0.06
760.801	0.06
761.114	0.06
761.427	0.06
761.739	0.07
762.052	0.06
762.365	0.06
762.677	0.06
762.99	0.05
763.302	0.06
763.614	0.06
763.926	0.06
764.239	0.06
764.551	0.06
764.863	0.06
765.175	0.06
765.487	0.06
765.799	0.06
766.111	0.06
766.423	0.06
766.734	0.06
767.046	0.06
767.358	0.06
767.669	0.06
767.981	0.06
768.292	0.06
768.604	0.07
768.915	0.05
769.226	0.06
769.537	0.05
769.849	0.06
770.16	0.05
770.471	0.06
770.782	0.05
771.093	0.05
771.404	0.05
771.715	0.05
772.025	0.05
772.336	0.05
772.647	0.05
772.957	0.06
773.268	0.06
773.578	0.06
773.889	0.06
774.199	0.07
774.51	0.06
774.82	0.06
775.13	0.07
775.44	0.06
775.75	0.06
776.06	0.06
776.37	0.06
776.68	0.06
776.99	0.06
777.3	0.06
777.61	0.07
777.92	0.05
778.229	0.06
778.539	0.06
778.848	0.06
779.158	0.06
779.467	0.06
779.777	0.05
780.086	0.07
780.395	0.05
780.704	0.05
781.013	0.04
781.323	0.05
781.632	0.06
781.941	0.05
782.249	0.05
782.558	0.05
782.867	0.06
783.176	0.04
783.485	0.04
783.793	0.04
784.102	0.05
784.41	0.05
784.719	0.04
785.027	0.05
785.335	0.05
785.644	0.05
785.952	0.05
786.26	0.05
786.568	0.04
786.876	0.05
787.184	0.05
787.492	0.06
787.8	0.05
788.108	0.05
788.416	0.05
788.723	0.05
789.031	0.05
789.338	0.04
789.646	0.04
789.953	0.05
790.261	0.05
790.568	0.05
790.876	0.06
791.183	0.06
791.49	0.05
791.797	0.05
792.104	0.05
792.411	0.06
792.718	0.05
793.025	0.06
793.332	0.06
793.639	0.06
793.945	0.07
794.252	0.06
794.559	0.06
794.865	0.06
795.172	0.06
795.478	0.05
795.784	0.07
796.091	0.06
796.397	0.07
796.703	0.07
797.009	0.07
797.315	0.05
797.622	0.07
797.927	0.06
798.233	0.06
798.539	0.07
798.845	0.06
799.151	0.07
799.456	0.07
799.762	0.06
800.068	0.07
800.373	0.08
800.679	0.06
800.984	0.06
801.289	0.06
801.595	0.07
801.9	0.07
802.205	0.06
802.51	0.06
802.815	0.07
803.12	0.06
803.425	0.06
803.73	0.06
804.035	0.07
804.339	0.06
804.644	0.06
804.949	0.06
805.253	0.06
805.558	0.06
805.862	0.05
806.167	0.06
806.471	0.06
806.775	0.06
807.08	0.06
807.384	0.06
807.688	0.05
807.992	0.05
808.296	0.05
808.6	0.06
808.904	0.06
809.207	0.06
809.511	0.06
809.815	0.07
810.119	0.06
810.422	0.06
810.726	0.07
811.029	0.07
811.332	0.06
811.636	0.07
811.939	0.07
812.242	0.06
812.546	0.07
812.849	0.07
813.152	0.07
813.455	0.07
813.758	0.07
814.06	0.07
814.363	0.07
814.666	0.07
814.969	0.07
815.271	0.07
815.574	0.07
815.877	0.07
816.179	0.07
816.481	0.07
816.784	0.06
817.086	0.05
817.388	0.05
817.69	0.05
817.993	0.05
818.295	0.05
818.597	0.05
818.899	0.05
819.2	0.05
819.502	0.05
819.804	0.05
820.106	0.05
820.407	0.04
820.709	0.04
821.01	0.05
821.312	0.05
821.613	0.04
821.915	0.05
822.216	0.04
822.517	0.04
822.818	0.05
823.119	0.05
823.42	0.04
823.721	0.03
824.022	0.04
824.323	0.04
824.624	0.04
824.925	0.05
825.226	0.05
825.526	0.04
825.827	0.04
826.127	0.04
826.428	0.04
826.728	0.05
827.028	0.04
827.329	0.04
827.629	0.03
827.929	0.04
828.229	0.05
828.529	0.05
828.829	0.04
829.129	0.04
829.429	0.04
829.729	0.04
830.029	0.04
830.328	0.05
830.628	0.03
830.927	0.03
831.227	0.04
831.526	0.04
831.826	0.04
832.125	0.04
832.424	0.03
832.724	0.04
833.023	0.04
833.322	0.04
833.621	0.03
833.92	0.02
834.219	0.02
834.518	0.03
834.816	0.03
835.115	0.02
835.414	0.02
835.712	0.02
836.011	0.02
836.309	0.02
836.608	0.02
836.906	0.01
837.205	0
837.503	0.01
837.801	0
838.099	-0
838.397	-0
838.695	0
838.993	-0
839.291	-0
839.589	-0
839.887	0
840.184	-0
840.482	-0.01
840.78	-0.01
841.077	-0.02
841.375	-0.01
841.672	0
841.969	-0.01
842.267	-0
842.564	-0.01
842.861	-0
843.158	-0.02
843.455	-0.02
843.752	-0.02
844.049	-0.02
844.346	-0.01
844.643	-0.03
844.94	-0.02
845.236	-0.01
845.533	-0.01
845.83	-0.02
846.126	-0.03
846.423	-0.03
846.719	-0.03
847.015	-0.02
847.312	-0.03
847.608	-0.03
847.904	-0.04
848.2	-0.03
848.496	-0.04
848.792	-0.03
849.088	-0.02
849.384	-0.03
849.68	-0.04
849.975	-0.03
850.271	-0.04
850.567	-0.03
850.862	-0.04
851.158	-0.04
851.453	-0.04
851.748	-0.04
852.044	-0.05
852.339	-0.04
852.634	-0.06
852.929	-0.04
853.224	-0.05
853.519	-0.05
853.814	-0.05
854.109	-0.05
854.404	-0.05
854.699	-0.05
854.994	-0.05
855.288	-0.05
855.583	-0.05
855.877	-0.06
856.172	-0.06
856.466	-0.07
856.76	-0.07
857.055	-0.07
857.349	-0.08
857.643	-0.07
857.937	-0.08
858.231	-0.08
858.525	-0.08
858.819	-0.09
859.113	-0.1
859.407	-0.1
859.701	-0.1
859.994	-0.1
860.288	-0.09
860.581	-0.1
860.875	-0.1
861.168	-0.1
861.462	-0.1
861.755	-0.09
862.048	-0.11
862.341	-0.11
862.634	-0.11
862.928	-0.1
863.221	-0.1
863.513	-0.11
863.806	-0.11
864.099	-0.12
864.392	-0.11
864.685	-0.11
864.977	-0.11
865.27	-0.12
865.562	-0.11
865.855	-0.11
866.147	-0.12
866.44	-0.11
866.732	-0.12
867.024	-0.12
867.316	-0.11
867.608	-0.13
867.9	-0.12
868.192	-0.13
868.484	-0.12
868.776	-0.13
869.068	-0.13
869.359	-0.12
869.651	-0.13
869.943	-0.15
870.234	-0.13
870.526	-0.14
870.817	-0.14
871.108	-0.13
871.4	-0.13
871.691	-0.15
871.982	-0.14
872.273	-0.15
872.564	-0.15
872.855	-0.15
873.146	-0.16
873.437	-0.16
873.728	-0.16
874.019	-0.17
874.309	-0.16
874.6	-0.17
874.89	-0.17
875.181	-0.17
875.471	-0.15
875.762	-0.15
876.052	-0.17
876.342	-0.15
876.632	-0.17
876.922	-0.17
877.213	-0.17
877.503	-0.17
877.792	-0.16
878.082	-0.17
878.372	-0.15
878.662	-0.18
878.952	-0.17
879.241	-0.16
879.531	-0.16
879.82	-0.15
880.11	-0.15
880.399	-0.16
880.688	-0.15
880.978	-0.15
881.267	-0.15
