Data from 12-12-AQDScycling_Absorbance__61__00061.txt Node

Date: Tue Dec 12 11:11:59 EST 2023
User: kyuminlee
Spectrometer: FLMS00943
Trigger mode: 0
Integration Time (sec): 1.000000E-1
Scans to average: 1
Electric dark correction enabled: true
Nonlinearity correction enabled: false
Boxcar width: 0
XAxis mode: Wavelengths
Number of Pixels in Spectrum: 2048
>>>>>Begin Spectral Data<<<<<
179.651	-0
180.037	-0
180.424	-0
180.81	-0.32
181.197	0.25
181.583	0.41
181.97	0.03
182.356	-0
182.743	-0
183.129	0.05
183.515	-0
183.901	-2.13
184.288	1.26
184.674	-0
185.06	-0
185.446	-0
185.832	-0.45
186.218	0.6
186.604	-0.12
186.99	-0
187.376	-0
187.762	0.93
188.148	0.33
188.534	0.59
188.92	0.22
189.305	0.16
189.691	0.2
190.077	0.2
190.463	0.08
190.848	0.09
191.234	-0.06
191.619	0.16
192.005	0.23
192.391	0.08
192.776	0.27
193.161	0.31
193.547	0.06
193.932	0.07
194.318	0.11
194.703	0.14
195.088	0.22
195.473	0.17
195.859	0.17
196.244	0.2
196.629	0.3
197.014	0.24
197.399	0.13
197.784	0.22
198.169	0.21
198.554	0.31
198.939	0.08
199.324	0.34
199.709	0.07
200.094	0.01
200.478	0.2
200.863	0.26
201.248	0.23
201.633	0.15
202.017	0.1
202.402	0.1
202.787	0.04
203.171	0.18
203.556	0.2
203.94	0.06
204.325	0.22
204.709	0.41
205.093	0.13
205.478	0.14
205.862	0.13
206.246	0.2
206.631	0.21
207.015	0.13
207.399	0.22
207.783	0.16
208.167	0.11
208.551	0.23
208.935	0.27
209.319	0.16
209.703	0.08
210.087	0.2
210.471	0.1
210.855	0.32
211.239	0.23
211.623	0.31
212.007	0.28
212.39	0.22
212.774	0.28
213.158	0.13
213.541	0.29
213.925	0.16
214.309	0.27
214.692	0.29
215.076	0.36
215.459	0.26
215.842	0.17
216.226	0.42
216.609	0.53
216.993	0.27
217.376	0.48
217.759	0.16
218.142	0.27
218.525	0.53
218.909	0.24
219.292	0.3
219.675	0.59
220.058	0.43
220.441	0.56
220.824	0.44
221.207	0.54
221.59	0.46
221.973	0.6
222.355	0.62
222.738	0.64
223.121	0.57
223.504	0.54
223.886	0.66
224.269	0.77
224.652	0.63
225.034	0.76
225.417	0.72
225.799	0.87
226.182	0.82
226.564	0.75
226.947	0.71
227.329	0.77
227.711	0.94
228.094	0.89
228.476	0.93
228.858	0.89
229.24	0.8
229.623	1.1
230.005	0.84
230.387	0.98
230.769	0.79
231.151	1.11
231.533	0.95
231.915	0.98
232.297	1.14
232.679	0.96
233.061	1.14
233.442	1.09
233.824	1.11
234.206	1.12
234.588	1.05
234.969	1.09
235.351	1.01
235.733	1.12
236.114	1.17
236.496	1.06
236.877	1.13
237.259	1.07
237.64	1
238.022	1.07
238.403	1.13
238.784	0.95
239.165	1.01
239.547	1.12
239.928	1.13
240.309	1.06
240.69	1.08
241.071	1.16
241.452	1.23
241.834	1.11
242.215	1
242.595	1.14
242.976	1.09
243.357	1.12
243.738	1.05
244.119	1.17
244.5	1.15
244.881	1.23
245.261	1.24
245.642	1.06
246.023	1.16
246.403	1.3
246.784	1.16
247.164	1.25
247.545	1.27
247.925	1.3
248.306	1.2
248.686	1.16
249.067	1.27
249.447	1.28
249.827	1.51
250.207	1.42
250.588	1.38
250.968	1.6
251.348	1.28
251.728	1.31
252.108	1.29
252.488	1.25
252.868	1.33
253.248	1.26
253.628	1.39
254.008	1.48
254.388	1.39
254.768	1.27
255.147	1.4
255.527	1.42
255.907	1.47
256.287	1.38
256.666	1.44
257.046	1.42
257.425	1.67
257.805	1.29
258.184	1.33
258.564	1.37
258.943	1.33
259.323	1.55
259.702	1.48
260.081	1.49
260.461	1.53
260.84	1.4
261.219	1.5
261.598	1.58
261.977	1.33
262.356	1.42
262.736	1.43
263.115	1.72
263.494	1.44
263.873	1.54
264.251	1.42
264.63	1.61
265.009	1.37
265.388	1.44
265.767	1.31
266.145	1.36
266.524	1.37
266.903	1.32
267.281	1.49
267.66	1.43
268.039	1.43
268.417	1.39
268.796	1.36
269.174	1.51
269.552	1.34
269.931	1.65
270.309	1.56
270.687	1.68
271.066	1.52
271.444	1.32
271.822	1.46
272.2	1.44
272.578	1.41
272.956	1.38
273.334	1.36
273.712	1.39
274.09	1.38
274.468	1.48
274.846	1.33
275.224	1.36
275.602	1.46
275.98	1.54
276.357	1.36
276.735	1.56
277.113	1.66
277.49	1.24
277.868	1.38
278.246	1.5
278.623	1.26
279.001	1.33
279.378	1.44
279.756	1.54
280.133	1.59
280.51	1.45
280.888	1.7
281.265	1.55
281.642	1.47
282.019	1.36
282.396	1.81
282.773	1.51
283.151	1.61
283.528	1.65
283.905	1.41
284.282	1.53
284.659	1.45
285.035	1.58
285.412	1.41
285.789	1.36
286.166	1.47
286.543	1.54
286.919	1.49
287.296	1.36
287.673	1.94
288.049	1.48
288.426	1.71
288.802	1.5
289.179	1.37
289.555	1.65
289.932	1.55
290.308	1.35
290.684	1.42
291.061	1.34
291.437	1.66
291.813	1.33
292.189	1.27
292.565	1.28
292.942	1.49
293.318	1.41
293.694	1.4
294.07	1.38
294.446	1.4
294.822	1.61
295.197	1.41
295.573	1.49
295.949	1.47
296.325	1.46
296.701	1.77
297.076	1.75
297.452	1.64
297.828	1.45
298.203	1.68
298.579	1.44
298.954	1.49
299.33	1.41
299.705	1.57
300.081	1.46
300.456	1.45
300.831	1.42
301.206	1.42
301.582	1.43
301.957	1.43
302.332	1.58
302.707	1.4
303.082	1.42
303.457	1.44
303.832	1.46
304.207	1.36
304.582	1.37
304.957	1.38
305.332	1.46
305.707	1.33
306.082	1.38
306.456	1.5
306.831	1.39
307.206	1.4
307.58	1.33
307.955	1.31
308.33	1.43
308.704	1.31
309.079	1.27
309.453	1.45
309.828	1.33
310.202	1.37
310.576	1.34
310.951	1.39
311.325	1.38
311.699	1.39
312.073	1.3
312.447	1.29
312.821	1.31
313.196	1.38
313.57	1.24
313.944	1.34
314.317	1.32
314.691	1.35
315.065	1.27
315.439	1.36
315.813	1.39
316.187	1.27
316.56	1.49
316.934	1.44
317.308	1.48
317.681	1.41
318.055	1.32
318.428	1.27
318.802	1.37
319.175	1.64
319.549	1.39
319.922	1.3
320.295	1.3
320.669	1.42
321.042	1.42
321.415	1.53
321.788	1.39
322.162	1.37
322.535	1.37
322.908	1.57
323.281	1.45
323.654	1.47
324.027	1.33
324.4	1.55
324.773	1.47
325.145	1.43
325.518	1.34
325.891	1.38
326.264	1.48
326.636	1.33
327.009	1.42
327.382	1.33
327.754	1.52
328.127	1.36
328.499	1.5
328.872	1.32
329.244	1.36
329.616	1.39
329.989	1.43
330.361	1.4
330.733	1.36
331.106	1.37
331.478	1.52
331.85	1.3
332.222	1.33
332.594	1.43
332.966	1.48
333.338	1.54
333.71	1.36
334.082	1.49
334.454	1.43
334.826	1.5
335.197	1.43
335.569	1.34
335.941	1.35
336.312	1.42
336.684	1.36
337.056	1.53
337.427	1.5
337.799	1.49
338.17	1.53
338.542	1.4
338.913	1.47
339.284	1.56
339.656	1.41
340.027	1.46
340.398	1.45
340.769	1.43
341.141	1.55
341.512	1.45
341.883	1.58
342.254	1.48
342.625	1.46
342.996	1.38
343.367	1.38
343.738	1.43
344.108	1.37
344.479	1.64
344.85	1.29
345.221	1.48
345.591	1.33
345.962	1.52
346.333	1.5
346.703	1.25
347.074	1.26
347.444	1.3
347.815	1.36
348.185	1.41
348.556	1.39
348.926	1.36
349.296	1.34
349.666	1.27
350.037	1.33
350.407	1.24
350.777	1.42
351.147	1.37
351.517	1.38
351.887	1.31
352.257	1.48
352.627	1.28
352.997	1.35
353.367	1.29
353.737	1.36
354.106	1.35
354.476	1.33
354.846	1.41
355.216	1.44
355.585	1.39
355.955	1.41
356.324	1.37
356.694	1.35
357.063	1.35
357.433	1.31
357.802	1.35
358.171	1.46
358.541	1.26
358.91	1.4
359.279	1.38
359.648	1.3
360.017	1.37
360.387	1.38
360.756	1.29
361.125	1.34
361.494	1.4
361.863	1.39
362.231	1.33
362.6	1.42
362.969	1.32
363.338	1.28
363.707	1.36
364.075	1.41
364.444	1.32
364.813	1.37
365.181	1.41
365.55	1.44
365.918	1.45
366.287	1.43
366.655	1.46
367.024	1.37
367.392	1.4
367.76	1.38
368.128	1.42
368.497	1.35
368.865	1.33
369.233	1.37
369.601	1.39
369.969	1.42
370.337	1.37
370.705	1.44
371.073	1.47
371.441	1.36
371.809	1.32
372.177	1.36
372.544	1.49
372.912	1.41
373.28	1.38
373.647	1.44
374.015	1.57
374.383	1.54
374.75	1.51
375.118	1.42
375.485	1.54
375.853	1.45
376.22	1.41
376.587	1.48
376.955	1.47
377.322	1.56
377.689	1.49
378.056	1.45
378.423	1.35
378.79	1.47
379.157	1.56
379.524	1.62
379.891	1.37
380.258	1.53
380.625	1.49
380.992	1.48
381.359	1.63
381.726	1.7
382.092	1.44
382.459	1.51
382.826	1.38
383.192	1.42
383.559	1.55
383.925	1.53
384.292	1.44
384.658	1.41
385.025	1.44
385.391	1.64
385.757	1.74
386.123	1.6
386.49	1.46
386.856	1.55
387.222	1.66
387.588	1.5
387.954	1.61
388.32	1.64
388.686	1.49
389.052	1.53
389.418	1.59
389.784	1.41
390.15	1.61
390.515	1.38
390.881	1.55
391.247	1.53
391.613	1.61
391.978	1.51
392.344	1.59
392.709	1.51
393.075	1.55
393.44	1.51
393.806	1.71
394.171	1.36
394.536	1.53
394.902	1.6
395.267	1.52
395.632	1.47
395.997	1.56
396.362	1.43
396.727	1.6
397.092	1.45
397.457	1.41
397.822	1.5
398.187	1.51
398.552	1.48
398.917	1.62
399.282	1.41
399.646	1.52
400.011	1.53
400.376	1.44
400.74	1.38
401.105	1.45
401.47	1.54
401.834	1.5
402.199	1.44
402.563	1.4
402.927	1.46
403.292	1.51
403.656	1.45
404.02	1.53
404.384	1.57
404.749	1.44
405.113	1.44
405.477	1.6
405.841	1.44
406.205	1.45
406.569	1.41
406.933	1.47
407.296	1.42
407.66	1.42
408.024	1.36
408.388	1.41
408.752	1.41
409.115	1.49
409.479	1.37
409.842	1.27
410.206	1.3
410.569	1.37
410.933	1.3
411.296	1.26
411.66	1.37
412.023	1.34
412.386	1.33
412.749	1.34
413.113	1.25
413.476	1.35
413.839	1.29
414.202	1.37
414.565	1.24
414.928	1.3
415.291	1.22
415.654	1.31
416.017	1.26
416.38	1.35
416.742	1.26
417.105	1.27
417.468	1.32
417.83	1.29
418.193	1.32
418.556	1.32
418.918	1.27
419.281	1.27
419.643	1.29
420.005	1.22
420.368	1.27
420.73	1.23
421.092	1.3
421.455	1.37
421.817	1.19
422.179	1.2
422.541	1.23
422.903	1.23
423.265	1.28
423.627	1.21
423.989	1.22
424.351	1.26
424.713	1.26
425.075	1.2
425.436	1.19
425.798	1.22
426.16	1.23
426.521	1.22
426.883	1.2
427.245	1.23
427.606	1.16
427.967	1.15
428.329	1.18
428.69	1.22
429.052	1.16
429.413	1.19
429.774	1.21
430.135	1.19
430.497	1.19
430.858	1.15
431.219	1.23
431.58	1.16
431.941	1.13
432.302	1.17
432.663	1.17
433.024	1.2
433.384	1.17
433.745	1.1
434.106	1.19
434.467	1.11
434.827	1.17
435.188	1.17
435.548	1.2
435.909	1.12
436.269	1.18
436.63	1.09
436.99	1.11
437.351	1.07
437.711	1.1
438.071	1.09
438.431	1.06
438.792	1.08
439.152	1.07
439.512	1.09
439.872	1.07
440.232	1.06
440.592	1.09
440.952	1.09
441.312	1.06
441.671	1.06
442.031	1.06
442.391	1.03
442.751	1.02
443.11	1.05
443.47	0.98
443.83	1.03
444.189	0.99
444.549	1.02
444.908	1
445.267	1
445.627	0.98
445.986	0.97
446.345	0.95
446.705	0.95
447.064	0.99
447.423	0.95
447.782	0.96
448.141	0.96
448.5	0.9
448.859	0.93
449.218	0.89
449.577	0.93
449.936	0.94
450.295	0.89
450.653	0.9
451.012	0.91
451.371	0.88
451.729	0.87
452.088	0.91
452.447	0.89
452.805	0.87
453.163	0.89
453.522	0.85
453.88	0.85
454.239	0.85
454.597	0.83
454.955	0.81
455.313	0.81
455.671	0.82
456.029	0.8
456.388	0.79
456.746	0.79
457.104	0.78
457.461	0.77
457.819	0.77
458.177	0.76
458.535	0.75
458.893	0.75
459.25	0.73
459.608	0.74
459.966	0.72
460.323	0.71
460.681	0.67
461.038	0.69
461.396	0.68
461.753	0.66
462.111	0.67
462.468	0.66
462.825	0.65
463.182	0.65
463.54	0.62
463.897	0.63
464.254	0.63
464.611	0.61
464.968	0.61
465.325	0.62
465.682	0.59
466.039	0.58
466.395	0.58
466.752	0.58
467.109	0.57
467.466	0.55
467.822	0.55
468.179	0.54
468.535	0.54
468.892	0.54
469.248	0.52
469.605	0.51
469.961	0.52
470.318	0.51
470.674	0.5
471.03	0.5
471.386	0.49
471.743	0.48
472.099	0.47
472.455	0.46
472.811	0.46
473.167	0.45
473.523	0.44
473.879	0.45
474.235	0.43
474.59	0.43
474.946	0.42
475.302	0.42
475.657	0.41
476.013	0.41
476.369	0.4
476.724	0.39
477.08	0.4
477.435	0.38
477.791	0.38
478.146	0.38
478.501	0.38
478.857	0.37
479.212	0.37
479.567	0.36
479.922	0.35
480.277	0.34
480.632	0.34
480.987	0.34
481.342	0.34
481.697	0.33
482.052	0.33
482.407	0.32
482.762	0.31
483.116	0.31
483.471	0.3
483.826	0.3
484.18	0.3
484.535	0.29
484.89	0.28
485.244	0.29
485.598	0.28
485.953	0.28
486.307	0.27
486.661	0.28
487.016	0.27
487.37	0.27
487.724	0.26
488.078	0.26
488.432	0.26
488.786	0.26
489.14	0.25
489.494	0.25
489.848	0.25
490.202	0.24
490.556	0.24
490.91	0.24
491.263	0.24
491.617	0.24
491.971	0.23
492.324	0.23
492.678	0.23
493.031	0.23
493.385	0.22
493.738	0.22
494.091	0.22
494.445	0.22
494.798	0.22
495.151	0.22
495.504	0.22
495.857	0.22
496.21	0.21
496.564	0.21
496.916	0.22
497.269	0.2
497.622	0.21
497.975	0.21
498.328	0.21
498.681	0.2
499.033	0.2
499.386	0.2
499.739	0.2
500.091	0.2
500.444	0.2
500.796	0.2
501.149	0.19
501.501	0.2
501.854	0.2
502.206	0.2
502.558	0.19
502.91	0.19
503.263	0.19
503.615	0.19
503.967	0.19
504.319	0.19
504.671	0.18
505.023	0.18
505.375	0.18
505.726	0.17
506.078	0.18
506.43	0.18
506.782	0.17
507.133	0.18
507.485	0.18
507.837	0.18
508.188	0.18
508.54	0.18
508.891	0.18
509.243	0.16
509.594	0.18
509.945	0.17
510.296	0.17
510.648	0.18
510.999	0.17
511.35	0.17
511.701	0.17
512.052	0.18
512.403	0.17
512.754	0.17
513.105	0.16
513.456	0.16
513.807	0.16
514.157	0.17
514.508	0.17
514.859	0.16
515.209	0.16
515.56	0.16
515.91	0.16
516.261	0.17
516.611	0.16
516.962	0.16
517.312	0.16
517.662	0.16
518.013	0.16
518.363	0.16
518.713	0.16
519.063	0.17
519.413	0.17
519.763	0.16
520.113	0.16
520.463	0.17
520.813	0.17
521.163	0.17
521.512	0.16
521.862	0.16
522.212	0.16
522.562	0.16
522.911	0.16
523.261	0.17
523.61	0.16
523.96	0.16
524.309	0.17
524.658	0.16
525.008	0.16
525.357	0.17
525.706	0.16
526.056	0.16
526.405	0.17
526.754	0.17
527.103	0.16
527.452	0.16
527.801	0.17
528.15	0.17
528.499	0.17
528.847	0.17
529.196	0.17
529.545	0.17
529.893	0.17
530.242	0.16
530.591	0.17
530.939	0.17
531.288	0.17
531.636	0.17
531.985	0.17
532.333	0.16
532.681	0.16
533.029	0.16
533.378	0.17
533.726	0.16
534.074	0.17
534.422	0.16
534.77	0.17
535.118	0.17
535.466	0.16
535.814	0.17
536.162	0.17
536.509	0.18
536.857	0.17
537.205	0.17
537.552	0.17
537.9	0.17
538.248	0.16
538.595	0.16
538.943	0.17
539.29	0.17
539.637	0.16
539.985	0.16
540.332	0.16
540.679	0.16
541.026	0.16
541.373	0.17
541.721	0.16
542.068	0.16
542.415	0.16
542.762	0.16
543.108	0.15
543.455	0.16
543.802	0.16
544.149	0.16
544.496	0.16
544.842	0.17
545.189	0.15
545.535	0.16
545.882	0.16
546.228	0.16
546.575	0.15
546.921	0.16
547.267	0.16
547.614	0.16
547.96	0.17
548.306	0.16
548.652	0.16
548.998	0.17
549.344	0.16
549.69	0.17
550.036	0.16
550.382	0.17
550.728	0.16
551.074	0.16
551.42	0.16
551.765	0.16
552.111	0.17
552.457	0.17
552.802	0.17
553.148	0.17
553.493	0.17
553.839	0.17
554.184	0.18
554.529	0.17
554.875	0.17
555.22	0.17
555.565	0.17
555.91	0.16
556.255	0.18
556.6	0.18
556.945	0.17
557.29	0.17
557.635	0.17
557.98	0.17
558.325	0.16
558.67	0.16
559.014	0.17
559.359	0.17
559.704	0.17
560.048	0.16
560.393	0.16
560.737	0.15
561.082	0.17
561.426	0.15
561.77	0.16
562.115	0.15
562.459	0.16
562.803	0.16
563.147	0.16
563.491	0.16
563.835	0.17
564.179	0.16
564.523	0.17
564.867	0.16
565.211	0.16
565.555	0.17
565.899	0.17
566.242	0.17
566.586	0.16
566.93	0.17
567.273	0.17
567.617	0.17
567.96	0.17
568.304	0.16
568.647	0.17
568.99	0.17
569.334	0.18
569.677	0.17
570.02	0.18
570.363	0.18
570.706	0.17
571.049	0.17
571.392	0.18
571.735	0.17
572.078	0.17
572.421	0.17
572.764	0.18
573.106	0.17
573.449	0.17
573.792	0.17
574.134	0.17
574.477	0.18
574.819	0.17
575.162	0.17
575.504	0.18
575.847	0.16
576.189	0.16
576.531	0.17
576.873	0.17
577.215	0.17
577.558	0.17
577.9	0.17
578.242	0.17
578.584	0.17
578.926	0.17
579.267	0.17
579.609	0.17
579.951	0.16
580.293	0.16
580.634	0.16
580.976	0.17
581.318	0.16
581.659	0.17
582.001	0.17
582.342	0.15
582.683	0.17
583.025	0.16
583.366	0.17
583.707	0.17
584.049	0.17
584.39	0.16
584.731	0.17
585.072	0.17
585.413	0.17
585.754	0.16
586.095	0.16
586.435	0.17
586.776	0.16
587.117	0.16
587.458	0.17
587.798	0.16
588.139	0.17
588.48	0.16
588.82	0.16
589.161	0.15
589.501	0.15
589.841	0.16
590.182	0.16
590.522	0.15
590.862	0.15
591.202	0.15
591.542	0.15
591.882	0.16
592.222	0.16
592.562	0.16
592.902	0.15
593.242	0.15
593.582	0.16
593.922	0.16
594.261	0.15
594.601	0.15
594.941	0.16
595.28	0.16
595.62	0.16
595.959	0.16
596.299	0.16
596.638	0.16
596.977	0.16
597.317	0.17
597.656	0.16
597.995	0.16
598.334	0.16
598.673	0.16
599.012	0.16
599.351	0.17
599.69	0.16
600.029	0.16
600.368	0.16
600.707	0.16
601.046	0.16
601.384	0.17
601.723	0.17
602.061	0.16
602.4	0.16
602.738	0.17
603.077	0.16
603.415	0.16
603.754	0.16
604.092	0.16
604.43	0.16
604.768	0.16
605.107	0.17
605.445	0.16
605.783	0.15
606.121	0.15
606.459	0.15
606.796	0.16
607.134	0.16
607.472	0.15
607.81	0.16
608.148	0.16
608.485	0.16
608.823	0.16
609.16	0.16
609.498	0.16
609.835	0.15
610.173	0.16
610.51	0.16
610.847	0.16
611.185	0.17
611.522	0.17
611.859	0.17
612.196	0.17
612.533	0.17
612.87	0.18
613.207	0.18
613.544	0.17
613.881	0.18
614.217	0.17
614.554	0.17
614.891	0.17
615.228	0.17
615.564	0.16
615.901	0.17
616.237	0.17
616.574	0.17
616.91	0.17
617.246	0.16
617.583	0.17
617.919	0.17
618.255	0.16
618.591	0.16
618.927	0.17
619.263	0.17
619.599	0.16
619.935	0.17
620.271	0.17
620.607	0.17
620.943	0.16
621.279	0.17
621.614	0.17
621.95	0.16
622.286	0.16
622.621	0.16
622.957	0.15
623.292	0.15
623.627	0.16
623.963	0.15
624.298	0.16
624.633	0.15
624.968	0.15
625.304	0.16
625.639	0.15
625.974	0.15
626.309	0.15
626.644	0.15
626.979	0.16
627.313	0.16
627.648	0.15
627.983	0.16
628.318	0.15
628.652	0.15
628.987	0.16
629.321	0.16
629.656	0.15
629.99	0.15
630.325	0.16
630.659	0.15
630.993	0.14
631.327	0.15
631.662	0.14
631.996	0.14
632.33	0.15
632.664	0.15
632.998	0.14
633.332	0.14
633.666	0.14
633.999	0.14
634.333	0.13
634.667	0.14
635.001	0.14
635.334	0.14
635.668	0.13
636.001	0.13
636.335	0.14
636.668	0.14
637.001	0.13
637.335	0.14
637.668	0.14
638.001	0.13
638.334	0.14
638.668	0.14
639.001	0.14
639.334	0.13
639.667	0.13
639.999	0.14
640.332	0.14
640.665	0.14
640.998	0.13
641.331	0.14
641.663	0.14
641.996	0.14
642.328	0.14
642.661	0.14
642.993	0.14
643.326	0.14
643.658	0.13
643.99	0.14
644.323	0.13
644.655	0.14
644.987	0.14
645.319	0.14
645.651	0.14
645.983	0.14
646.315	0.14
646.647	0.14
646.979	0.15
647.31	0.14
647.642	0.14
647.974	0.14
648.305	0.15
648.637	0.14
648.968	0.14
649.3	0.15
649.631	0.15
649.963	0.14
650.294	0.14
650.625	0.15
650.957	0.14
651.288	0.14
651.619	0.14
651.95	0.13
652.281	0.14
652.612	0.14
652.943	0.14
653.274	0.14
653.604	0.13
653.935	0.13
654.266	0.14
654.596	0.13
654.927	0.14
655.258	0.13
655.588	0.14
655.918	0.13
656.249	0.12
656.579	0.14
656.909	0.13
657.24	0.13
657.57	0.14
657.9	0.14
658.23	0.13
658.56	0.14
658.89	0.14
659.22	0.13
659.55	0.13
659.88	0.14
660.209	0.14
660.539	0.15
660.869	0.13
661.198	0.14
661.528	0.13
661.857	0.13
662.187	0.13
662.516	0.14
662.846	0.13
663.175	0.13
663.504	0.13
663.833	0.12
664.163	0.13
664.492	0.14
664.821	0.13
665.15	0.13
665.479	0.13
665.807	0.13
666.136	0.13
666.465	0.12
666.794	0.13
667.122	0.13
667.451	0.13
667.78	0.12
668.108	0.12
668.437	0.12
668.765	0.13
669.093	0.13
669.422	0.13
669.75	0.13
670.078	0.13
670.406	0.13
670.734	0.13
671.062	0.13
671.39	0.13
671.718	0.12
672.046	0.13
672.374	0.12
672.702	0.12
673.029	0.12
673.357	0.13
673.685	0.13
674.012	0.13
674.34	0.11
674.667	0.13
674.995	0.12
675.322	0.13
675.649	0.12
675.977	0.12
676.304	0.12
676.631	0.11
676.958	0.12
677.285	0.11
677.612	0.11
677.939	0.11
678.266	0.12
678.593	0.11
678.92	0.11
679.246	0.1
679.573	0.1
679.9	0.11
680.226	0.11
680.553	0.11
680.879	0.11
681.206	0.11
681.532	0.1
681.858	0.1
682.184	0.1
682.511	0.1
682.837	0.1
683.163	0.1
683.489	0.1
683.815	0.11
684.141	0.1
684.467	0.11
684.793	0.1
685.118	0.1
685.444	0.11
685.77	0.11
686.095	0.11
686.421	0.1
686.746	0.11
687.072	0.11
687.397	0.1
687.723	0.11
688.048	0.11
688.373	0.1
688.698	0.1
689.023	0.11
689.349	0.11
689.674	0.11
689.999	0.1
690.323	0.09
690.648	0.09
690.973	0.09
691.298	0.09
691.623	0.09
691.947	0.09
692.272	0.09
692.596	0.09
692.921	0.1
693.245	0.09
693.57	0.1
693.894	0.09
694.218	0.09
694.543	0.09
694.867	0.09
695.191	0.08
695.515	0.1
695.839	0.08
696.163	0.09
696.487	0.09
696.811	0.09
697.135	0.09
697.458	0.09
697.782	0.09
698.106	0.09
698.429	0.1
698.753	0.09
699.076	0.1
699.4	0.09
699.723	0.09
700.046	0.09
700.37	0.09
700.693	0.09
701.016	0.09
701.339	0.09
701.662	0.1
701.985	0.1
702.308	0.09
702.631	0.09
702.954	0.09
703.277	0.09
703.599	0.1
703.922	0.09
704.245	0.09
704.567	0.09
704.89	0.09
705.212	0.09
705.535	0.08
705.857	0.08
706.179	0.07
706.502	0.08
706.824	0.07
707.146	0.07
707.468	0.08
707.79	0.07
708.112	0.08
708.434	0.08
708.756	0.08
709.078	0.08
709.399	0.07
709.721	0.07
710.043	0.08
710.364	0.08
710.686	0.08
711.007	0.08
711.329	0.08
711.65	0.08
711.972	0.07
712.293	0.07
712.614	0.08
712.935	0.08
713.256	0.08
713.577	0.09
713.898	0.07
714.219	0.07
714.54	0.07
714.861	0.07
715.182	0.08
715.503	0.07
715.823	0.08
716.144	0.08
716.464	0.07
716.785	0.07
717.105	0.08
717.426	0.08
717.746	0.07
718.066	0.07
718.387	0.07
718.707	0.07
719.027	0.08
719.347	0.06
719.667	0.07
719.987	0.06
720.307	0.06
720.627	0.06
720.947	0.07
721.266	0.07
721.586	0.06
721.906	0.07
722.225	0.05
722.545	0.07
722.864	0.06
723.184	0.07
723.503	0.06
723.823	0.07
724.142	0.06
724.461	0.07
724.78	0.06
725.099	0.07
725.418	0.07
725.737	0.06
726.056	0.06
726.375	0.07
726.694	0.07
727.013	0.07
727.331	0.06
727.65	0.06
727.969	0.07
728.287	0.06
728.606	0.06
728.924	0.06
729.242	0.06
729.561	0.06
729.879	0.06
730.197	0.06
730.515	0.06
730.834	0.05
731.152	0.05
731.47	0.06
731.788	0.06
732.105	0.05
732.423	0.05
732.741	0.06
733.059	0.06
733.376	0.06
733.694	0.05
734.012	0.06
734.329	0.06
734.647	0.06
734.964	0.06
735.281	0.06
735.599	0.06
735.916	0.06
736.233	0.07
736.55	0.06
736.867	0.07
737.184	0.07
737.501	0.06
737.818	0.06
738.135	0.07
738.452	0.07
738.768	0.06
739.085	0.06
739.402	0.06
739.718	0.06
740.035	0.06
740.351	0.06
740.668	0.06
740.984	0.06
741.3	0.06
741.617	0.06
741.933	0.05
742.249	0.06
742.565	0.06
742.881	0.06
743.197	0.07
743.513	0.06
743.829	0.05
744.144	0.06
744.46	0.06
744.776	0.06
745.091	0.05
745.407	0.05
745.722	0.05
746.038	0.05
746.353	0.05
746.669	0.06
746.984	0.05
747.299	0.05
747.614	0.05
747.93	0.05
748.245	0.05
748.56	0.06
748.875	0.05
749.189	0.05
749.504	0.05
749.819	0.05
750.134	0.05
750.448	0.05
750.763	0.05
751.078	0.04
751.392	0.05
751.707	0.07
752.021	0.06
752.335	0.06
752.65	0.06
752.964	0.06
753.278	0.07
753.592	0.06
753.906	0.05
754.22	0.06
754.534	0.07
754.848	0.06
755.162	0.06
755.476	0.06
755.789	0.06
756.103	0.05
756.417	0.06
756.73	0.06
757.044	0.06
757.357	0.06
757.671	0.06
757.984	0.06
758.297	0.06
758.61	0.05
758.924	0.06
759.237	0.05
759.55	0.06
759.863	0.05
760.176	0.05
760.488	0.06
760.801	0.05
761.114	0.05
761.427	0.05
761.739	0.06
762.052	0.05
762.365	0.05
762.677	0.05
762.99	0.05
763.302	0.05
763.614	0.05
763.926	0.06
764.239	0.05
764.551	0.05
764.863	0.05
765.175	0.06
765.487	0.06
765.799	0.04
766.111	0.05
766.423	0.05
766.734	0.05
767.046	0.05
767.358	0.05
767.669	0.05
767.981	0.05
768.292	0.05
768.604	0.05
768.915	0.05
769.226	0.05
769.537	0.03
769.849	0.05
770.16	0.04
770.471	0.04
770.782	0.04
771.093	0.04
771.404	0.03
771.715	0.04
772.025	0.04
772.336	0.04
772.647	0.04
772.957	0.04
773.268	0.04
773.578	0.04
773.889	0.04
774.199	0.04
774.51	0.04
774.82	0.04
775.13	0.04
775.44	0.04
775.75	0.04
776.06	0.04
776.37	0.04
776.68	0.05
776.99	0.04
777.3	0.04
777.61	0.04
777.92	0.03
778.229	0.04
778.539	0.04
778.848	0.04
779.158	0.05
779.467	0.04
779.777	0.04
780.086	0.05
780.395	0.03
780.704	0.03
781.013	0.03
781.323	0.03
781.632	0.04
781.941	0.04
782.249	0.04
782.558	0.04
782.867	0.04
783.176	0.03
783.485	0.03
783.793	0.04
784.102	0.04
784.41	0.03
784.719	0.03
785.027	0.03
785.335	0.04
785.644	0.04
785.952	0.03
786.26	0.03
786.568	0.03
786.876	0.04
787.184	0.04
787.492	0.04
787.8	0.04
788.108	0.04
788.416	0.04
788.723	0.04
789.031	0.03
789.338	0.03
789.646	0.04
789.953	0.05
790.261	0.04
790.568	0.04
790.876	0.04
791.183	0.05
791.49	0.04
791.797	0.05
792.104	0.03
792.411	0.05
792.718	0.04
793.025	0.04
793.332	0.05
793.639	0.05
793.945	0.05
794.252	0.05
794.559	0.05
794.865	0.05
795.172	0.04
795.478	0.05
795.784	0.05
796.091	0.05
796.397	0.05
796.703	0.04
797.009	0.06
797.315	0.05
797.622	0.05
797.927	0.04
798.233	0.05
798.539	0.05
798.845	0.05
799.151	0.05
799.456	0.05
799.762	0.04
800.068	0.04
800.373	0.04
800.679	0.04
800.984	0.03
801.289	0.03
801.595	0.03
801.9	0.03
802.205	0.03
802.51	0.04
802.815	0.03
803.12	0.03
803.425	0.03
803.73	0.03
804.035	0.03
804.339	0.03
804.644	0.03
804.949	0.04
805.253	0.03
805.558	0.04
805.862	0.04
806.167	0.04
806.471	0.03
806.775	0.04
807.08	0.04
807.384	0.04
807.688	0.04
807.992	0.04
808.296	0.03
808.6	0.04
808.904	0.04
809.207	0.04
809.511	0.04
809.815	0.05
810.119	0.04
810.422	0.04
810.726	0.04
811.029	0.05
811.332	0.04
811.636	0.05
811.939	0.04
812.242	0.04
812.546	0.04
812.849	0.04
813.152	0.05
813.455	0.05
813.758	0.04
814.06	0.05
814.363	0.04
814.666	0.05
814.969	0.04
815.271	0.04
815.574	0.04
815.877	0.05
816.179	0.04
816.481	0.04
816.784	0.04
817.086	0.04
817.388	0.03
817.69	0.03
817.993	0.03
818.295	0.03
818.597	0.03
818.899	0.03
819.2	0.02
819.502	0.03
819.804	0.03
820.106	0.03
820.407	0.03
820.709	0.03
821.01	0.03
821.312	0.04
821.613	0.03
821.915	0.03
822.216	0.03
822.517	0.02
822.818	0.02
823.119	0.03
823.42	0.03
823.721	0.02
824.022	0.01
824.323	0.02
824.624	0.03
824.925	0.03
825.226	0.03
825.526	0.02
825.827	0.02
826.127	0.02
826.428	0.02
826.728	0.02
827.028	0.02
827.329	0.02
827.629	0.01
827.929	0.02
828.229	0.02
828.529	0.03
828.829	0.02
829.129	0.02
829.429	0.03
829.729	0.02
830.029	0.02
830.328	0.02
830.628	0.01
830.927	0.01
831.227	0.01
831.526	0.02
831.826	0.02
832.125	0.01
832.424	0.01
832.724	0.01
833.023	0.01
833.322	0.02
833.621	0.01
833.92	0
834.219	0.01
834.518	0.01
834.816	0
835.115	0.01
835.414	0.01
835.712	-0
836.011	0.01
836.309	0
836.608	0.01
836.906	-0
837.205	-0.01
837.503	-0.01
837.801	-0.01
838.099	-0.01
838.397	-0.02
838.695	-0.02
838.993	-0.02
839.291	-0.03
839.589	-0.03
839.887	-0.02
840.184	-0.03
840.482	-0.03
840.78	-0.03
841.077	-0.04
841.375	-0.04
841.672	-0.03
841.969	-0.04
842.267	-0.04
842.564	-0.05
842.861	-0.04
843.158	-0.04
843.455	-0.06
843.752	-0.05
844.049	-0.05
844.346	-0.05
844.643	-0.05
844.94	-0.04
845.236	-0.04
845.533	-0.05
845.83	-0.05
846.126	-0.05
846.423	-0.05
846.719	-0.05
847.015	-0.05
847.312	-0.05
847.608	-0.06
847.904	-0.05
848.2	-0.06
848.496	-0.06
848.792	-0.06
849.088	-0.06
849.384	-0.06
849.68	-0.07
849.975	-0.06
850.271	-0.07
850.567	-0.07
850.862	-0.08
851.158	-0.08
851.453	-0.08
851.748	-0.09
852.044	-0.08
852.339	-0.08
852.634	-0.1
852.929	-0.09
853.224	-0.09
853.519	-0.09
853.814	-0.09
854.109	-0.1
854.404	-0.1
854.699	-0.11
854.994	-0.1
855.288	-0.11
855.583	-0.1
855.877	-0.11
856.172	-0.11
856.466	-0.11
856.76	-0.11
857.055	-0.1
857.349	-0.12
857.643	-0.12
857.937	-0.13
858.231	-0.12
858.525	-0.13
858.819	-0.12
859.113	-0.14
859.407	-0.13
859.701	-0.13
859.994	-0.13
860.288	-0.12
860.581	-0.12
860.875	-0.14
861.168	-0.13
861.462	-0.13
861.755	-0.12
862.048	-0.14
862.341	-0.14
862.634	-0.13
862.928	-0.14
863.221	-0.14
863.513	-0.14
863.806	-0.13
864.099	-0.14
864.392	-0.13
864.685	-0.13
864.977	-0.13
865.27	-0.13
865.562	-0.13
865.855	-0.13
866.147	-0.13
866.44	-0.12
866.732	-0.13
867.024	-0.13
867.316	-0.15
867.608	-0.14
867.9	-0.14
868.192	-0.14
868.484	-0.15
868.776	-0.15
869.068	-0.14
869.359	-0.14
869.651	-0.14
869.943	-0.16
870.234	-0.15
870.526	-0.15
870.817	-0.15
871.108	-0.14
871.4	-0.15
871.691	-0.15
871.982	-0.15
872.273	-0.16
872.564	-0.16
872.855	-0.17
873.146	-0.15
873.437	-0.16
873.728	-0.17
874.019	-0.16
874.309	-0.16
874.6	-0.16
874.89	-0.16
875.181	-0.16
875.471	-0.16
875.762	-0.16
876.052	-0.16
876.342	-0.16
876.632	-0.16
876.922	-0.17
877.213	-0.16
877.503	-0.18
877.792	-0.16
878.082	-0.17
878.372	-0.15
878.662	-0.18
878.952	-0.18
879.241	-0.17
879.531	-0.16
879.82	-0.18
880.11	-0.17
880.399	-0.17
880.688	-0.17
880.978	-0.17
881.267	-0.17
