Data from 12-12-AQDScycling_Absorbance__19__00019.txt Node

Date: Tue Dec 12 11:01:29 EST 2023
User: kyuminlee
Spectrometer: FLMS00943
Trigger mode: 0
Integration Time (sec): 1.000000E-1
Scans to average: 1
Electric dark correction enabled: true
Nonlinearity correction enabled: false
Boxcar width: 0
XAxis mode: Wavelengths
Number of Pixels in Spectrum: 2048
>>>>>Begin Spectral Data<<<<<
179.651	-0
180.037	-0
180.424	-0
180.81	-0
181.197	0.3
181.583	-0
181.97	-0.04
182.356	-0
182.743	-1.13
183.129	-0.05
183.515	0.67
183.901	-1.32
184.288	0.4
184.674	-0
185.06	-1.07
185.446	-0
185.832	-0.7
186.218	0.12
186.604	-0.24
186.99	-0
187.376	-0.05
187.762	0.92
188.148	-0
188.534	-0.27
188.92	0.02
189.305	0.13
189.691	0.2
190.077	0.24
190.463	0.21
190.848	0.15
191.234	0.19
191.619	0.04
192.005	0.05
192.391	0.11
192.776	0.12
193.161	0.09
193.547	0.31
193.932	0.11
194.318	0.08
194.703	0.1
195.088	0.27
195.473	0.18
195.859	0.16
196.244	0.1
196.629	0.13
197.014	0.09
197.399	0.18
197.784	0.06
198.169	0.2
198.554	0.33
198.939	0.09
199.324	0.05
199.709	0.02
200.094	0.1
200.478	0.08
200.863	0.24
201.248	0.21
201.633	0.21
202.017	0.29
202.402	0.3
202.787	0.11
203.171	0.19
203.556	0.23
203.94	0.08
204.325	0.21
204.709	0.27
205.093	0.08
205.478	0.15
205.862	0.15
206.246	0.15
206.631	0.13
207.015	0.19
207.399	0.28
207.783	0.19
208.167	0.2
208.551	0.16
208.935	0.25
209.319	0.1
209.703	0.14
210.087	0.2
210.471	-0
210.855	0.17
211.239	0.21
211.623	0.19
212.007	0.28
212.39	0.19
212.774	0.22
213.158	0.2
213.541	0.21
213.925	0.27
214.309	0.36
214.692	0.28
215.076	0.12
215.459	0.12
215.842	0.15
216.226	0.21
216.609	0.24
216.993	0.17
217.376	0.48
217.759	0.21
218.142	0.38
218.525	0.41
218.909	0.33
219.292	0.39
219.675	0.37
220.058	0.48
220.441	0.43
220.824	0.53
221.207	0.54
221.59	0.46
221.973	0.49
222.355	0.77
222.738	0.86
223.121	0.69
223.504	0.53
223.886	0.68
224.269	0.67
224.652	0.63
225.034	0.7
225.417	0.69
225.799	0.92
226.182	0.9
226.564	0.81
226.947	0.89
227.329	0.75
227.711	1.05
228.094	1
228.476	0.83
228.858	0.83
229.24	0.91
229.623	0.92
230.005	0.87
230.387	0.86
230.769	0.79
231.151	0.97
231.533	0.92
231.915	0.86
232.297	1.03
232.679	0.98
233.061	1.04
233.442	1.07
233.824	1.15
234.206	1.17
234.588	1.04
234.969	0.97
235.351	1.12
235.733	1.19
236.114	1.13
236.496	1.04
236.877	1.19
237.259	1.03
237.64	1.22
238.022	1.01
238.403	1.01
238.784	0.98
239.165	1.05
239.547	1.04
239.928	1.04
240.309	1.04
240.69	0.99
241.071	1.03
241.452	1.01
241.834	1.16
242.215	1.13
242.595	1.05
242.976	1.12
243.357	1.12
243.738	1.1
244.119	1.31
244.5	1.26
244.881	1.24
245.261	1.28
245.642	1.26
246.023	1.13
246.403	1.1
246.784	1.27
247.164	1.25
247.545	1.2
247.925	1.3
248.306	1.19
248.686	1.46
249.067	1.28
249.447	1.26
249.827	1.42
250.207	1.45
250.588	1.27
250.968	1.58
251.348	1.2
251.728	1.41
252.108	1.33
252.488	1.29
252.868	1.24
253.248	1.29
253.628	1.46
254.008	1.4
254.388	1.23
254.768	1.24
255.147	1.41
255.527	1.38
255.907	1.39
256.287	1.33
256.666	1.61
257.046	1.44
257.425	1.55
257.805	1.39
258.184	1.34
258.564	1.34
258.943	1.41
259.323	1.49
259.702	1.45
260.081	1.43
260.461	1.5
260.84	1.47
261.219	1.71
261.598	1.59
261.977	1.48
262.356	1.57
262.736	1.49
263.115	1.46
263.494	1.57
263.873	1.44
264.251	1.65
264.63	1.58
265.009	1.43
265.388	1.36
265.767	1.36
266.145	1.34
266.524	1.42
266.903	1.42
267.281	1.5
267.66	1.78
268.039	1.42
268.417	1.59
268.796	1.38
269.174	1.43
269.552	1.29
269.931	1.44
270.309	1.52
270.687	1.53
271.066	1.63
271.444	1.47
271.822	1.56
272.2	1.39
272.578	1.52
272.956	1.49
273.334	1.38
273.712	1.58
274.09	1.42
274.468	1.41
274.846	1.33
275.224	1.32
275.602	1.42
275.98	1.44
276.357	1.35
276.735	1.69
277.113	1.45
277.49	1.27
277.868	1.35
278.246	1.51
278.623	1.42
279.001	1.31
279.378	1.47
279.756	1.39
280.133	1.45
280.51	1.3
280.888	1.34
281.265	1.32
281.642	1.63
282.019	1.36
282.396	1.61
282.773	1.41
283.151	1.57
283.528	1.41
283.905	1.41
284.282	1.49
284.659	1.59
285.035	1.43
285.412	1.35
285.789	1.74
286.166	1.52
286.543	1.33
286.919	1.46
287.296	1.51
287.673	1.56
288.049	1.55
288.426	1.71
288.802	1.46
289.179	1.43
289.555	1.84
289.932	1.39
290.308	1.28
290.684	1.42
291.061	1.31
291.437	1.54
291.813	1.37
292.189	1.35
292.565	1.37
292.942	1.28
293.318	1.37
293.694	1.42
294.07	1.23
294.446	1.53
294.822	1.4
295.197	1.38
295.573	1.38
295.949	1.43
296.325	1.48
296.701	1.5
297.076	1.62
297.452	1.57
297.828	1.37
298.203	1.58
298.579	1.41
298.954	1.48
299.33	1.47
299.705	1.45
300.081	1.6
300.456	1.59
300.831	1.45
301.206	1.41
301.582	1.59
301.957	1.5
302.332	1.6
302.707	1.42
303.082	1.41
303.457	1.55
303.832	1.48
304.207	1.51
304.582	1.46
304.957	1.52
305.332	1.62
305.707	1.65
306.082	1.54
306.456	1.58
306.831	1.62
307.206	1.5
307.58	1.51
307.955	1.6
308.33	1.53
308.704	1.46
309.079	1.53
309.453	1.65
309.828	1.51
310.202	1.48
310.576	1.42
310.951	1.55
311.325	1.57
311.699	1.5
312.073	1.37
312.447	1.58
312.821	1.54
313.196	1.61
313.57	1.4
313.944	1.42
314.317	1.43
314.691	1.65
315.065	1.51
315.439	1.62
315.813	1.53
316.187	1.5
316.56	1.66
316.934	1.53
317.308	1.56
317.681	1.5
318.055	1.53
318.428	1.56
318.802	1.67
319.175	1.51
319.549	1.44
319.922	1.38
320.295	1.39
320.669	1.58
321.042	1.44
321.415	1.7
321.788	1.5
322.162	1.48
322.535	1.61
322.908	1.79
323.281	1.53
323.654	1.69
324.027	1.46
324.4	1.62
324.773	1.57
325.145	1.54
325.518	1.61
325.891	1.51
326.264	1.71
326.636	1.44
327.009	1.56
327.382	1.6
327.754	1.55
328.127	1.43
328.499	1.51
328.872	1.48
329.244	1.51
329.616	1.5
329.989	1.45
330.361	1.5
330.733	1.44
331.106	1.57
331.478	1.66
331.85	1.49
332.222	1.38
332.594	1.48
332.966	1.6
333.338	1.49
333.71	1.46
334.082	1.6
334.454	1.51
334.826	1.58
335.197	1.68
335.569	1.7
335.941	1.45
336.312	1.46
336.684	1.48
337.056	1.47
337.427	1.55
337.799	1.59
338.17	1.59
338.542	1.4
338.913	1.84
339.284	1.7
339.656	1.49
340.027	1.48
340.398	1.51
340.769	1.55
341.141	1.76
341.512	1.53
341.883	1.68
342.254	1.56
342.625	1.74
342.996	1.55
343.367	1.49
343.738	1.52
344.108	1.46
344.479	1.61
344.85	1.39
345.221	1.84
345.591	1.43
345.962	1.47
346.333	1.5
346.703	1.3
347.074	1.29
347.444	1.38
347.815	1.31
348.185	1.5
348.556	1.47
348.926	1.29
349.296	1.42
349.666	1.41
350.037	1.24
350.407	1.33
350.777	1.43
351.147	1.42
351.517	1.4
351.887	1.33
352.257	1.33
352.627	1.27
352.997	1.28
353.367	1.37
353.737	1.38
354.106	1.32
354.476	1.26
354.846	1.39
355.216	1.34
355.585	1.31
355.955	1.32
356.324	1.33
356.694	1.32
357.063	1.31
357.433	1.2
357.802	1.22
358.171	1.28
358.541	1.23
358.91	1.21
359.279	1.26
359.648	1.17
360.017	1.16
360.387	1.18
360.756	1.09
361.125	1.12
361.494	1.1
361.863	1.07
362.231	1.03
362.6	1.02
362.969	1.03
363.338	0.98
363.707	1.04
364.075	1.02
364.444	0.89
364.813	0.93
365.181	0.93
365.55	0.88
365.918	0.9
366.287	0.89
366.655	0.92
367.024	0.85
367.392	0.86
367.76	0.82
368.128	0.83
368.497	0.8
368.865	0.81
369.233	0.77
369.601	0.76
369.969	0.77
370.337	0.76
370.705	0.73
371.073	0.75
371.441	0.73
371.809	0.71
372.177	0.72
372.544	0.74
372.912	0.72
373.28	0.71
373.647	0.72
374.015	0.71
374.383	0.71
374.75	0.71
375.118	0.65
375.485	0.67
375.853	0.69
376.22	0.64
376.587	0.63
376.955	0.64
377.322	0.65
377.689	0.64
378.056	0.63
378.423	0.61
378.79	0.64
379.157	0.64
379.524	0.64
379.891	0.62
380.258	0.64
380.625	0.6
380.992	0.61
381.359	0.63
381.726	0.65
382.092	0.64
382.459	0.62
382.826	0.62
383.192	0.63
383.559	0.61
383.925	0.64
384.292	0.6
384.658	0.64
385.025	0.6
385.391	0.64
385.757	0.64
386.123	0.64
386.49	0.62
386.856	0.64
387.222	0.65
387.588	0.63
387.954	0.63
388.32	0.65
388.686	0.64
389.052	0.63
389.418	0.64
389.784	0.63
390.15	0.64
390.515	0.64
390.881	0.66
391.247	0.63
391.613	0.67
391.978	0.64
392.344	0.66
392.709	0.64
393.075	0.65
393.44	0.62
393.806	0.63
394.171	0.63
394.536	0.62
394.902	0.61
395.267	0.61
395.632	0.61
395.997	0.61
396.362	0.61
396.727	0.63
397.092	0.61
397.457	0.59
397.822	0.61
398.187	0.59
398.552	0.58
398.917	0.57
399.282	0.58
399.646	0.57
400.011	0.58
400.376	0.56
400.74	0.59
401.105	0.56
401.47	0.57
401.834	0.55
402.199	0.56
402.563	0.53
402.927	0.51
403.292	0.54
403.656	0.57
404.02	0.52
404.384	0.52
404.749	0.54
405.113	0.51
405.477	0.51
405.841	0.51
406.205	0.51
406.569	0.5
406.933	0.49
407.296	0.49
407.66	0.5
408.024	0.48
408.388	0.48
408.752	0.47
409.115	0.49
409.479	0.48
409.842	0.46
410.206	0.43
410.569	0.45
410.933	0.45
411.296	0.44
411.66	0.45
412.023	0.43
412.386	0.43
412.749	0.43
413.113	0.43
413.476	0.42
413.839	0.43
414.202	0.42
414.565	0.41
414.928	0.44
415.291	0.41
415.654	0.4
416.017	0.42
416.38	0.41
416.742	0.39
417.105	0.39
417.468	0.4
417.83	0.4
418.193	0.39
418.556	0.4
418.918	0.38
419.281	0.4
419.643	0.38
420.005	0.39
420.368	0.39
420.73	0.36
421.092	0.38
421.455	0.37
421.817	0.37
422.179	0.38
422.541	0.37
422.903	0.37
423.265	0.36
423.627	0.35
423.989	0.37
424.351	0.37
424.713	0.36
425.075	0.36
425.436	0.36
425.798	0.36
426.16	0.36
426.521	0.36
426.883	0.36
427.245	0.34
427.606	0.35
427.967	0.35
428.329	0.34
428.69	0.36
429.052	0.36
429.413	0.35
429.774	0.33
430.135	0.33
430.497	0.34
430.858	0.33
431.219	0.32
431.58	0.32
431.941	0.32
432.302	0.34
432.663	0.33
433.024	0.33
433.384	0.32
433.745	0.3
434.106	0.32
434.467	0.33
434.827	0.32
435.188	0.31
435.548	0.34
435.909	0.32
436.269	0.33
436.63	0.3
436.99	0.32
437.351	0.31
437.711	0.31
438.071	0.3
438.431	0.31
438.792	0.3
439.152	0.29
439.512	0.31
439.872	0.3
440.232	0.31
440.592	0.31
440.952	0.31
441.312	0.3
441.671	0.29
442.031	0.29
442.391	0.3
442.751	0.3
443.11	0.29
443.47	0.28
443.83	0.28
444.189	0.29
444.549	0.28
444.908	0.28
445.267	0.28
445.627	0.27
445.986	0.27
446.345	0.27
446.705	0.27
447.064	0.27
447.423	0.28
447.782	0.27
448.141	0.27
448.5	0.25
448.859	0.26
449.218	0.26
449.577	0.27
449.936	0.27
450.295	0.26
450.653	0.26
451.012	0.27
451.371	0.27
451.729	0.26
452.088	0.26
452.447	0.26
452.805	0.27
453.163	0.26
453.522	0.25
453.88	0.25
454.239	0.25
454.597	0.24
454.955	0.24
455.313	0.23
455.671	0.24
456.029	0.23
456.388	0.23
456.746	0.23
457.104	0.22
457.461	0.22
457.819	0.22
458.177	0.21
458.535	0.22
458.893	0.21
459.25	0.21
459.608	0.21
459.966	0.21
460.323	0.2
460.681	0.2
461.038	0.21
461.396	0.2
461.753	0.2
462.111	0.2
462.468	0.2
462.825	0.19
463.182	0.19
463.54	0.19
463.897	0.19
464.254	0.19
464.611	0.19
464.968	0.18
465.325	0.19
465.682	0.17
466.039	0.18
466.395	0.17
466.752	0.18
467.109	0.17
467.466	0.17
467.822	0.17
468.179	0.16
468.535	0.17
468.892	0.17
469.248	0.16
469.605	0.16
469.961	0.16
470.318	0.17
470.674	0.16
471.03	0.16
471.386	0.16
471.743	0.15
472.099	0.15
472.455	0.14
472.811	0.15
473.167	0.14
473.523	0.13
473.879	0.14
474.235	0.14
474.59	0.14
474.946	0.14
475.302	0.14
475.657	0.13
476.013	0.14
476.369	0.13
476.724	0.14
477.08	0.14
477.435	0.13
477.791	0.14
478.146	0.13
478.501	0.13
478.857	0.13
479.212	0.13
479.567	0.12
479.922	0.12
480.277	0.12
480.632	0.12
480.987	0.12
481.342	0.12
481.697	0.11
482.052	0.11
482.407	0.11
482.762	0.1
483.116	0.11
483.471	0.1
483.826	0.1
484.18	0.1
484.535	0.1
484.89	0.1
485.244	0.1
485.598	0.11
485.953	0.11
486.307	0.1
486.661	0.11
487.016	0.09
487.37	0.1
487.724	0.1
488.078	0.1
488.432	0.1
488.786	0.1
489.14	0.09
489.494	0.09
489.848	0.09
490.202	0.09
490.556	0.09
490.91	0.09
491.263	0.09
491.617	0.09
491.971	0.08
492.324	0.08
492.678	0.09
493.031	0.09
493.385	0.09
493.738	0.09
494.091	0.09
494.445	0.09
494.798	0.08
495.151	0.09
495.504	0.09
495.857	0.08
496.21	0.09
496.564	0.08
496.916	0.09
497.269	0.08
497.622	0.09
497.975	0.08
498.328	0.09
498.681	0.09
499.033	0.08
499.386	0.08
499.739	0.08
500.091	0.08
500.444	0.08
500.796	0.08
501.149	0.08
501.501	0.08
501.854	0.08
502.206	0.08
502.558	0.08
502.91	0.08
503.263	0.07
503.615	0.08
503.967	0.07
504.319	0.08
504.671	0.07
505.023	0.07
505.375	0.07
505.726	0.07
506.078	0.07
506.43	0.07
506.782	0.07
507.133	0.07
507.485	0.08
507.837	0.08
508.188	0.08
508.54	0.08
508.891	0.08
509.243	0.07
509.594	0.07
509.945	0.07
510.296	0.07
510.648	0.07
510.999	0.06
511.35	0.07
511.701	0.07
512.052	0.07
512.403	0.07
512.754	0.06
513.105	0.06
513.456	0.06
513.807	0.06
514.157	0.06
514.508	0.06
514.859	0.06
515.209	0.07
515.56	0.06
515.91	0.05
516.261	0.06
516.611	0.06
516.962	0.07
517.312	0.06
517.662	0.06
518.013	0.07
518.363	0.07
518.713	0.07
519.063	0.07
519.413	0.06
519.763	0.06
520.113	0.06
520.463	0.07
520.813	0.07
521.163	0.07
521.512	0.06
521.862	0.07
522.212	0.06
522.562	0.07
522.911	0.06
523.261	0.06
523.61	0.06
523.96	0.07
524.309	0.07
524.658	0.07
525.008	0.06
525.357	0.07
525.706	0.07
526.056	0.07
526.405	0.07
526.754	0.07
527.103	0.06
527.452	0.07
527.801	0.07
528.15	0.07
528.499	0.07
528.847	0.07
529.196	0.07
529.545	0.06
529.893	0.07
530.242	0.06
530.591	0.07
530.939	0.07
531.288	0.06
531.636	0.07
531.985	0.07
532.333	0.07
532.681	0.07
533.029	0.06
533.378	0.07
533.726	0.07
534.074	0.08
534.422	0.06
534.77	0.07
535.118	0.06
535.466	0.07
535.814	0.07
536.162	0.07
536.509	0.07
536.857	0.07
537.205	0.07
537.552	0.07
537.9	0.07
538.248	0.05
538.595	0.06
538.943	0.06
539.29	0.06
539.637	0.06
539.985	0.06
540.332	0.06
540.679	0.07
541.026	0.06
541.373	0.07
541.721	0.06
542.068	0.06
542.415	0.07
542.762	0.07
543.108	0.06
543.455	0.05
543.802	0.05
544.149	0.06
544.496	0.06
544.842	0.05
545.189	0.05
545.535	0.06
545.882	0.06
546.228	0.05
546.575	0.05
546.921	0.06
547.267	0.06
547.614	0.06
547.96	0.06
548.306	0.06
548.652	0.06
548.998	0.07
549.344	0.06
549.69	0.06
550.036	0.06
550.382	0.06
550.728	0.06
551.074	0.06
551.42	0.06
551.765	0.06
552.111	0.06
552.457	0.07
552.802	0.06
553.148	0.06
553.493	0.06
553.839	0.06
554.184	0.06
554.529	0.06
554.875	0.07
555.22	0.07
555.565	0.06
555.91	0.05
556.255	0.07
556.6	0.07
556.945	0.05
557.29	0.06
557.635	0.07
557.98	0.06
558.325	0.06
558.67	0.06
559.014	0.06
559.359	0.05
559.704	0.06
560.048	0.05
560.393	0.05
560.737	0.05
561.082	0.06
561.426	0.05
561.77	0.05
562.115	0.05
562.459	0.05
562.803	0.05
563.147	0.05
563.491	0.05
563.835	0.06
564.179	0.05
564.523	0.05
564.867	0.05
565.211	0.05
565.555	0.06
565.899	0.06
566.242	0.06
566.586	0.05
566.93	0.06
567.273	0.07
567.617	0.06
567.96	0.06
568.304	0.07
568.647	0.05
568.99	0.06
569.334	0.07
569.677	0.06
570.02	0.07
570.363	0.07
570.706	0.06
571.049	0.06
571.392	0.07
571.735	0.06
572.078	0.07
572.421	0.07
572.764	0.06
573.106	0.06
573.449	0.06
573.792	0.06
574.134	0.06
574.477	0.06
574.819	0.06
575.162	0.05
575.504	0.05
575.847	0.06
576.189	0.06
576.531	0.06
576.873	0.06
577.215	0.06
577.558	0.06
577.9	0.06
578.242	0.05
578.584	0.06
578.926	0.06
579.267	0.05
579.609	0.05
579.951	0.05
580.293	0.05
580.634	0.06
580.976	0.06
581.318	0.05
581.659	0.05
582.001	0.06
582.342	0.06
582.683	0.06
583.025	0.05
583.366	0.05
583.707	0.06
584.049	0.05
584.39	0.06
584.731	0.05
585.072	0.05
585.413	0.06
585.754	0.06
586.095	0.06
586.435	0.05
586.776	0.05
587.117	0.06
587.458	0.06
587.798	0.06
588.139	0.06
588.48	0.05
588.82	0.05
589.161	0.05
589.501	0.05
589.841	0.05
590.182	0.05
590.522	0.05
590.862	0.05
591.202	0.05
591.542	0.05
591.882	0.05
592.222	0.05
592.562	0.05
592.902	0.05
593.242	0.05
593.582	0.05
593.922	0.05
594.261	0.05
594.601	0.05
594.941	0.05
595.28	0.06
595.62	0.06
595.959	0.05
596.299	0.05
596.638	0.05
596.977	0.05
597.317	0.06
597.656	0.06
597.995	0.05
598.334	0.06
598.673	0.05
599.012	0.06
599.351	0.06
599.69	0.05
600.029	0.06
600.368	0.06
600.707	0.06
601.046	0.06
601.384	0.06
601.723	0.06
602.061	0.06
602.4	0.06
602.738	0.05
603.077	0.06
603.415	0.05
603.754	0.06
604.092	0.06
604.43	0.05
604.768	0.06
605.107	0.06
605.445	0.06
605.783	0.05
606.121	0.05
606.459	0.06
606.796	0.06
607.134	0.06
607.472	0.06
607.81	0.06
608.148	0.05
608.485	0.06
608.823	0.06
609.16	0.06
609.498	0.06
609.835	0.06
610.173	0.06
610.51	0.07
610.847	0.06
611.185	0.06
611.522	0.07
611.859	0.07
612.196	0.07
612.533	0.07
612.87	0.07
613.207	0.07
613.544	0.07
613.881	0.07
614.217	0.07
614.554	0.07
614.891	0.07
615.228	0.07
615.564	0.06
615.901	0.07
616.237	0.06
616.574	0.07
616.91	0.07
617.246	0.07
617.583	0.07
617.919	0.07
618.255	0.07
618.591	0.07
618.927	0.07
619.263	0.07
619.599	0.07
619.935	0.07
620.271	0.07
620.607	0.07
620.943	0.07
621.279	0.07
621.614	0.07
621.95	0.07
622.286	0.06
622.621	0.06
622.957	0.06
623.292	0.06
623.627	0.06
623.963	0.06
624.298	0.06
624.633	0.06
624.968	0.05
625.304	0.06
625.639	0.06
625.974	0.06
626.309	0.05
626.644	0.07
626.979	0.07
627.313	0.06
627.648	0.06
627.983	0.07
628.318	0.05
628.652	0.05
628.987	0.06
629.321	0.07
629.656	0.06
629.99	0.05
630.325	0.06
630.659	0.06
630.993	0.05
631.327	0.05
631.662	0.04
631.996	0.05
632.33	0.05
632.664	0.06
632.998	0.05
633.332	0.05
633.666	0.05
633.999	0.05
634.333	0.04
634.667	0.05
635.001	0.04
635.334	0.04
635.668	0.05
636.001	0.05
636.335	0.05
636.668	0.05
637.001	0.04
637.335	0.05
637.668	0.05
638.001	0.05
638.334	0.05
638.668	0.05
639.001	0.04
639.334	0.04
639.667	0.04
639.999	0.04
640.332	0.05
640.665	0.05
640.998	0.05
641.331	0.05
641.663	0.05
641.996	0.05
642.328	0.06
642.661	0.05
642.993	0.05
643.326	0.05
643.658	0.05
643.99	0.05
644.323	0.05
644.655	0.05
644.987	0.05
645.319	0.06
645.651	0.05
645.983	0.05
646.315	0.05
646.647	0.06
646.979	0.06
647.31	0.06
647.642	0.06
647.974	0.06
648.305	0.06
648.637	0.06
648.968	0.06
649.3	0.06
649.631	0.07
649.963	0.06
650.294	0.06
650.625	0.06
650.957	0.06
651.288	0.06
651.619	0.06
651.95	0.06
652.281	0.06
652.612	0.05
652.943	0.06
653.274	0.06
653.604	0.06
653.935	0.06
654.266	0.06
654.596	0.06
654.927	0.05
655.258	0.06
655.588	0.06
655.918	0.06
656.249	0.04
656.579	0.06
656.909	0.06
657.24	0.06
657.57	0.06
657.9	0.06
658.23	0.06
658.56	0.07
658.89	0.06
659.22	0.05
659.55	0.06
659.88	0.06
660.209	0.06
660.539	0.07
660.869	0.06
661.198	0.07
661.528	0.06
661.857	0.06
662.187	0.07
662.516	0.06
662.846	0.06
663.175	0.06
663.504	0.06
663.833	0.06
664.163	0.06
664.492	0.06
664.821	0.06
665.15	0.06
665.479	0.06
665.807	0.05
666.136	0.06
666.465	0.06
666.794	0.05
667.122	0.06
667.451	0.06
667.78	0.06
668.108	0.06
668.437	0.05
668.765	0.06
669.093	0.06
669.422	0.06
669.75	0.06
670.078	0.05
670.406	0.06
670.734	0.06
671.062	0.06
671.39	0.05
671.718	0.05
672.046	0.06
672.374	0.06
672.702	0.06
673.029	0.06
673.357	0.06
673.685	0.07
674.012	0.06
674.34	0.06
674.667	0.06
674.995	0.06
675.322	0.06
675.649	0.06
675.977	0.06
676.304	0.05
676.631	0.05
676.958	0.05
677.285	0.05
677.612	0.05
677.939	0.05
678.266	0.05
678.593	0.05
678.92	0.05
679.246	0.05
679.573	0.05
679.9	0.04
680.226	0.04
680.553	0.04
680.879	0.05
681.206	0.05
681.532	0.04
681.858	0.04
682.184	0.04
682.511	0.04
682.837	0.04
683.163	0.05
683.489	0.05
683.815	0.04
684.141	0.04
684.467	0.04
684.793	0.04
685.118	0.04
685.444	0.05
685.77	0.04
686.095	0.04
686.421	0.04
686.746	0.05
687.072	0.04
687.397	0.04
687.723	0.05
688.048	0.04
688.373	0.05
688.698	0.04
689.023	0.04
689.349	0.04
689.674	0.05
689.999	0.04
690.323	0.04
690.648	0.04
690.973	0.03
691.298	0.04
691.623	0.04
691.947	0.04
692.272	0.03
692.596	0.04
692.921	0.04
693.245	0.04
693.57	0.04
693.894	0.04
694.218	0.04
694.543	0.04
694.867	0.04
695.191	0.03
695.515	0.04
695.839	0.03
696.163	0.03
696.487	0.04
696.811	0.03
697.135	0.04
697.458	0.04
697.782	0.04
698.106	0.03
698.429	0.04
698.753	0.04
699.076	0.04
699.4	0.03
699.723	0.04
700.046	0.03
700.37	0.05
700.693	0.04
701.016	0.03
701.339	0.04
701.662	0.04
701.985	0.04
702.308	0.03
702.631	0.04
702.954	0.04
703.277	0.04
703.599	0.04
703.922	0.03
704.245	0.03
704.567	0.03
704.89	0.03
705.212	0.03
705.535	0.02
705.857	0.03
706.179	0.03
706.502	0.02
706.824	0.02
707.146	0.03
707.468	0.04
707.79	0.03
708.112	0.03
708.434	0.03
708.756	0.03
709.078	0.03
709.399	0.03
709.721	0.02
710.043	0.03
710.364	0.03
710.686	0.03
711.007	0.03
711.329	0.03
711.65	0.03
711.972	0.03
712.293	0.03
712.614	0.03
712.935	0.03
713.256	0.03
713.577	0.04
713.898	0.04
714.219	0.04
714.54	0.03
714.861	0.03
715.182	0.04
715.503	0.03
715.823	0.03
716.144	0.04
716.464	0.02
716.785	0.03
717.105	0.04
717.426	0.04
717.746	0.03
718.066	0.03
718.387	0.02
718.707	0.02
719.027	0.03
719.347	0.02
719.667	0.03
719.987	0.02
720.307	0.02
720.627	0.03
720.947	0.02
721.266	0.02
721.586	0.02
721.906	0.03
722.225	0.01
722.545	0.02
722.864	0.02
723.184	0.03
723.503	0.02
723.823	0.03
724.142	0.02
724.461	0.03
724.78	0.03
725.099	0.04
725.418	0.03
725.737	0.03
726.056	0.03
726.375	0.04
726.694	0.04
727.013	0.03
727.331	0.02
727.65	0.03
727.969	0.03
728.287	0.03
728.606	0.03
728.924	0.02
729.242	0.02
729.561	0.03
729.879	0.02
730.197	0.03
730.515	0.02
730.834	0.03
731.152	0.02
731.47	0.03
731.788	0.02
732.105	0.01
732.423	0.03
732.741	0.02
733.059	0.02
733.376	0.03
733.694	0.02
734.012	0.02
734.329	0.03
734.647	0.02
734.964	0.03
735.281	0.03
735.599	0.03
735.916	0.03
736.233	0.02
736.55	0.02
736.867	0.03
737.184	0.03
737.501	0.02
737.818	0.02
738.135	0.03
738.452	0.03
738.768	0.02
739.085	0.03
739.402	0.02
739.718	0.03
740.035	0.03
740.351	0.03
740.668	0.04
740.984	0.03
741.3	0.02
741.617	0.03
741.933	0.03
742.249	0.04
742.565	0.02
742.881	0.03
743.197	0.03
743.513	0.03
743.829	0.02
744.144	0.03
744.46	0.02
744.776	0.03
745.091	0.02
745.407	0.03
745.722	0.03
746.038	0.02
746.353	0.01
746.669	0.03
746.984	0.02
747.299	0.02
747.614	0.03
747.93	0.03
748.245	0.02
748.56	0.02
748.875	0.02
749.189	0.01
749.504	0.02
749.819	0.02
750.134	0.02
750.448	0.02
750.763	0.02
751.078	0.02
751.392	0.02
751.707	0.03
752.021	0.03
752.335	0.03
752.65	0.04
752.964	0.02
753.278	0.03
753.592	0.03
753.906	0.02
754.22	0.04
754.534	0.03
754.848	0.03
755.162	0.03
755.476	0.03
755.789	0.03
756.103	0.02
756.417	0.03
756.73	0.03
757.044	0.03
757.357	0.02
757.671	0.03
757.984	0.03
758.297	0.04
758.61	0.03
758.924	0.03
759.237	0.03
759.55	0.03
759.863	0.03
760.176	0.03
760.488	0.03
760.801	0.03
761.114	0.03
761.427	0.02
761.739	0.03
762.052	0.03
762.365	0.03
762.677	0.03
762.99	0.02
763.302	0.02
763.614	0.03
763.926	0.03
764.239	0.02
764.551	0.02
764.863	0.03
765.175	0.03
765.487	0.04
765.799	0.02
766.111	0.03
766.423	0.02
766.734	0.02
767.046	0.02
767.358	0.03
767.669	0.02
767.981	0.02
768.292	0.02
768.604	0.03
768.915	0.03
769.226	0.02
769.537	0.02
769.849	0.03
770.16	0.02
770.471	0.02
770.782	0.02
771.093	0.02
771.404	0.01
771.715	0.01
772.025	0.02
772.336	0.02
772.647	0.01
772.957	0.02
773.268	0.02
773.578	0.01
773.889	0.02
774.199	0.02
774.51	0.02
774.82	0.01
775.13	0.02
775.44	0.03
775.75	0.03
776.06	0.02
776.37	0.01
776.68	0.03
776.99	0.02
777.3	0.01
777.61	0.03
777.92	0.02
778.229	0.01
778.539	0.02
778.848	0.02
779.158	0.02
779.467	0.03
779.777	0.03
780.086	0.02
780.395	0.02
780.704	0.02
781.013	0.01
781.323	0.02
781.632	0.02
781.941	0.03
782.249	0.02
782.558	0.01
782.867	0.02
783.176	0.01
783.485	0.02
783.793	0.02
784.102	0.02
784.41	0.02
784.719	0.01
785.027	0.02
785.335	0.02
785.644	0.02
785.952	0.02
786.26	0.02
786.568	0.02
786.876	0.01
787.184	0.02
787.492	0.03
787.8	0.03
788.108	0.02
788.416	0.03
788.723	0.02
789.031	0.02
789.338	0.02
789.646	0.02
789.953	0.03
790.261	0.03
790.568	0.03
790.876	0.03
791.183	0.03
791.49	0.02
791.797	0.03
792.104	0.02
792.411	0.03
792.718	0.03
793.025	0.03
793.332	0.03
793.639	0.04
793.945	0.04
794.252	0.03
794.559	0.03
794.865	0.03
795.172	0.03
795.478	0.03
795.784	0.03
796.091	0.02
796.397	0.04
796.703	0.03
797.009	0.04
797.315	0.03
797.622	0.03
797.927	0.03
798.233	0.03
798.539	0.02
798.845	0.03
799.151	0.02
799.456	0.03
799.762	0.02
800.068	0.02
800.373	0.03
800.679	0.01
800.984	0.02
801.289	0.01
801.595	0.02
801.9	0.02
802.205	0.01
802.51	0.01
802.815	0.02
803.12	0.02
803.425	0.02
803.73	0.02
804.035	0.03
804.339	0.02
804.644	0.02
804.949	0.02
805.253	0.02
805.558	0.02
805.862	0.02
806.167	0.03
806.471	0.02
806.775	0.02
807.08	0.02
807.384	0.02
807.688	0.03
807.992	0.02
808.296	0.02
808.6	0.02
808.904	0.03
809.207	0.02
809.511	0.03
809.815	0.03
810.119	0.03
810.422	0.04
810.726	0.03
811.029	0.03
811.332	0.03
811.636	0.04
811.939	0.02
812.242	0.03
812.546	0.03
812.849	0.03
813.152	0.03
813.455	0.03
813.758	0.03
814.06	0.03
814.363	0.03
814.666	0.04
814.969	0.04
815.271	0.04
815.574	0.03
815.877	0.03
816.179	0.03
816.481	0.03
816.784	0.03
817.086	0.03
817.388	0.02
817.69	0.02
817.993	0.03
818.295	0.02
818.597	0.02
818.899	0.02
819.2	0.02
819.502	0.02
819.804	0.03
820.106	0.02
820.407	0.01
820.709	0.02
821.01	0.02
821.312	0.02
821.613	0.01
821.915	0.01
822.216	0.01
822.517	0.01
822.818	0.01
823.119	0.01
823.42	0.01
823.721	0.01
824.022	0.01
824.323	0
824.624	0.01
824.925	0
825.226	0.02
825.526	0.01
825.827	0.01
826.127	0
826.428	0.01
826.728	0
827.028	0.01
827.329	0.01
827.629	-0
827.929	-0
828.229	0.01
828.529	0.01
828.829	0.01
829.129	0.01
829.429	0.01
829.729	0
830.029	0
830.328	0.01
830.628	-0.01
830.927	0
831.227	0
831.526	0
831.826	0
832.125	0
832.424	-0
832.724	-0.01
833.023	-0
833.322	0
833.621	-0
833.92	-0
834.219	-0.01
834.518	-0
834.816	-0.02
835.115	-0
835.414	-0.02
835.712	-0.01
836.011	-0.02
836.309	-0.01
836.608	-0.01
836.906	-0.02
837.205	-0.02
837.503	-0.02
837.801	-0.02
838.099	-0.03
838.397	-0.04
838.695	-0.03
838.993	-0.03
839.291	-0.03
839.589	-0.03
839.887	-0.04
840.184	-0.04
840.482	-0.04
840.78	-0.03
841.077	-0.04
841.375	-0.03
841.672	-0.04
841.969	-0.04
842.267	-0.03
842.564	-0.04
842.861	-0.04
843.158	-0.05
843.455	-0.06
843.752	-0.05
844.049	-0.05
844.346	-0.05
844.643	-0.05
844.94	-0.05
845.236	-0.03
845.533	-0.04
845.83	-0.05
846.126	-0.05
846.423	-0.06
846.719	-0.06
847.015	-0.06
847.312	-0.06
847.608	-0.07
847.904	-0.07
848.2	-0.07
848.496	-0.07
848.792	-0.07
849.088	-0.06
849.384	-0.07
849.68	-0.08
849.975	-0.07
850.271	-0.09
850.567	-0.09
850.862	-0.09
851.158	-0.09
851.453	-0.09
851.748	-0.1
852.044	-0.09
852.339	-0.1
852.634	-0.11
852.929	-0.1
853.224	-0.1
853.519	-0.11
853.814	-0.1
854.109	-0.11
854.404	-0.11
854.699	-0.11
854.994	-0.11
855.288	-0.1
855.583	-0.1
855.877	-0.12
856.172	-0.1
856.466	-0.11
856.76	-0.12
857.055	-0.12
857.349	-0.12
857.643	-0.12
857.937	-0.13
858.231	-0.13
858.525	-0.13
858.819	-0.13
859.113	-0.13
859.407	-0.14
859.701	-0.13
859.994	-0.14
860.288	-0.12
860.581	-0.14
860.875	-0.13
861.168	-0.14
861.462	-0.13
861.755	-0.13
862.048	-0.13
862.341	-0.13
862.634	-0.13
862.928	-0.12
863.221	-0.13
863.513	-0.13
863.806	-0.13
864.099	-0.13
864.392	-0.13
864.685	-0.13
864.977	-0.12
865.27	-0.14
865.562	-0.13
865.855	-0.12
866.147	-0.14
866.44	-0.13
866.732	-0.13
867.024	-0.14
867.316	-0.14
867.608	-0.14
867.9	-0.14
868.192	-0.15
868.484	-0.15
868.776	-0.15
869.068	-0.13
869.359	-0.14
869.651	-0.15
869.943	-0.16
870.234	-0.15
870.526	-0.16
870.817	-0.16
871.108	-0.14
871.4	-0.15
871.691	-0.16
871.982	-0.16
872.273	-0.17
872.564	-0.16
872.855	-0.16
873.146	-0.17
873.437	-0.16
873.728	-0.18
874.019	-0.16
874.309	-0.17
874.6	-0.16
874.89	-0.18
875.181	-0.18
875.471	-0.17
875.762	-0.17
876.052	-0.16
876.342	-0.16
876.632	-0.16
876.922	-0.18
877.213	-0.16
877.503	-0.18
877.792	-0.17
878.082	-0.18
878.372	-0.16
878.662	-0.19
878.952	-0.19
879.241	-0.18
879.531	-0.17
879.82	-0.18
880.11	-0.17
880.399	-0.17
880.688	-0.18
880.978	-0.18
881.267	-0.18
