Data from 12-12-AQDScycling_Absorbance__77__00077.txt Node

Date: Tue Dec 12 11:15:59 EST 2023
User: kyuminlee
Spectrometer: FLMS00943
Trigger mode: 0
Integration Time (sec): 1.000000E-1
Scans to average: 1
Electric dark correction enabled: true
Nonlinearity correction enabled: false
Boxcar width: 0
XAxis mode: Wavelengths
Number of Pixels in Spectrum: 2048
>>>>>Begin Spectral Data<<<<<
179.651	-0.32
180.037	-0.32
180.424	-0.32
180.81	-0
181.197	0.27
181.583	0.11
181.97	-0.29
182.356	-0
182.743	-1.43
183.129	-0
183.515	-0.15
183.901	-2.03
184.288	0.32
184.674	-0
185.06	-1.35
185.446	-0.02
185.832	-0.12
186.218	-0
186.604	-0.17
186.99	-0
187.376	-0
187.762	-0
188.148	0.33
188.534	0.33
188.92	0.16
189.305	0.04
189.691	0.33
190.077	0.21
190.463	0.28
190.848	-0.01
191.234	0.07
191.619	0.08
192.005	0.01
192.391	0.13
192.776	0.12
193.161	0.2
193.547	0.11
193.932	0.1
194.318	0.09
194.703	0.09
195.088	0.26
195.473	0.23
195.859	0.07
196.244	0.22
196.629	0.09
197.014	0.16
197.399	0.32
197.784	0.11
198.169	0.16
198.554	0.31
198.939	0.09
199.324	0.12
199.709	0.07
200.094	0.03
200.478	0.1
200.863	0.3
201.248	0.07
201.633	0.3
202.017	0.04
202.402	0.17
202.787	0.19
203.171	0.22
203.556	0.2
203.94	0.15
204.325	0.22
204.709	0.24
205.093	0.09
205.478	0.2
205.862	0.16
206.246	0.15
206.631	0.12
207.015	0.13
207.399	0.17
207.783	0.11
208.167	0.21
208.551	0.45
208.935	0.28
209.319	0.19
209.703	0.19
210.087	0.19
210.471	-0.01
210.855	0.2
211.239	0.49
211.623	0.27
212.007	0.37
212.39	0.23
212.774	0.28
213.158	0.11
213.541	0.4
213.925	0.25
214.309	0.33
214.692	0.44
215.076	0.29
215.459	0.21
215.842	0.16
216.226	0.31
216.609	0.39
216.993	0.23
217.376	0.43
217.759	0.18
218.142	0.31
218.525	0.42
218.909	0.44
219.292	0.38
219.675	0.36
220.058	0.41
220.441	0.52
220.824	0.47
221.207	0.66
221.59	0.44
221.973	0.5
222.355	0.59
222.738	0.75
223.121	0.68
223.504	0.54
223.886	0.73
224.269	0.67
224.652	0.72
225.034	0.79
225.417	0.7
225.799	0.94
226.182	1.09
226.564	0.78
226.947	0.84
227.329	0.85
227.711	1
228.094	0.99
228.476	0.94
228.858	0.84
229.24	0.81
229.623	0.98
230.005	0.86
230.387	0.85
230.769	0.82
231.151	0.98
231.533	0.94
231.915	0.87
232.297	1.07
232.679	1.13
233.061	1.13
233.442	0.96
233.824	1.06
234.206	1.14
234.588	1.14
234.969	1.05
235.351	1.07
235.733	1.04
236.114	1.09
236.496	1.1
236.877	1.09
237.259	1.01
237.64	1.1
238.022	1.08
238.403	1.08
238.784	0.95
239.165	0.99
239.547	1.22
239.928	1.19
240.309	1.12
240.69	1.03
241.071	1.11
241.452	1.16
241.834	1.04
242.215	1.01
242.595	0.95
242.976	1.23
243.357	1.2
243.738	1.09
244.119	1.38
244.5	1.14
244.881	1.31
245.261	1.29
245.642	1.23
246.023	1.17
246.403	1.17
246.784	1.32
247.164	1.18
247.545	1.29
247.925	1.25
248.306	1.24
248.686	1.43
249.067	1.31
249.447	1.23
249.827	1.63
250.207	1.56
250.588	1.22
250.968	1.48
251.348	1.31
251.728	1.57
252.108	1.44
252.488	1.38
252.868	1.34
253.248	1.31
253.628	1.43
254.008	1.47
254.388	1.33
254.768	1.42
255.147	1.55
255.527	1.43
255.907	1.47
256.287	1.51
256.666	1.34
257.046	1.41
257.425	1.53
257.805	1.41
258.184	1.54
258.564	1.3
258.943	1.34
259.323	1.6
259.702	1.57
260.081	1.51
260.461	1.39
260.84	1.41
261.219	1.71
261.598	1.5
261.977	1.53
262.356	1.47
262.736	1.58
263.115	1.69
263.494	1.38
263.873	1.55
264.251	1.46
264.63	1.67
265.009	1.45
265.388	1.43
265.767	1.32
266.145	1.37
266.524	1.61
266.903	1.61
267.281	1.42
267.66	1.63
268.039	1.49
268.417	1.42
268.796	1.49
269.174	1.47
269.552	1.3
269.931	1.58
270.309	1.43
270.687	1.66
271.066	1.5
271.444	1.41
271.822	1.6
272.2	1.53
272.578	1.39
272.956	1.63
273.334	1.33
273.712	1.49
274.09	1.35
274.468	1.3
274.846	1.32
275.224	1.32
275.602	1.44
275.98	1.64
276.357	1.37
276.735	1.6
277.113	1.53
277.49	1.39
277.868	1.28
278.246	1.49
278.623	1.3
279.001	1.4
279.378	1.45
279.756	1.52
280.133	1.51
280.51	1.41
280.888	1.42
281.265	1.28
281.642	1.45
282.019	1.69
282.396	1.77
282.773	1.59
283.151	1.54
283.528	1.54
283.905	1.39
284.282	1.52
284.659	1.68
285.035	1.35
285.412	1.38
285.789	1.62
286.166	1.36
286.543	1.52
286.919	1.55
287.296	1.36
287.673	1.68
288.049	1.63
288.426	1.61
288.802	1.45
289.179	1.51
289.555	1.84
289.932	1.5
290.308	1.36
290.684	1.38
291.061	1.46
291.437	1.68
291.813	1.43
292.189	1.33
292.565	1.41
292.942	1.34
293.318	1.39
293.694	1.5
294.07	1.37
294.446	1.47
294.822	1.56
295.197	1.49
295.573	1.53
295.949	1.55
296.325	1.72
296.701	1.55
297.076	1.48
297.452	1.41
297.828	1.44
298.203	1.59
298.579	1.4
298.954	1.55
299.33	1.4
299.705	1.4
300.081	1.54
300.456	1.5
300.831	1.41
301.206	1.36
301.582	1.59
301.957	1.39
302.332	1.38
302.707	1.39
303.082	1.3
303.457	1.33
303.832	1.4
304.207	1.3
304.582	1.33
304.957	1.32
305.332	1.34
305.707	1.26
306.082	1.25
306.456	1.35
306.831	1.23
307.206	1.25
307.58	1.29
307.955	1.23
308.33	1.27
308.704	1.28
309.079	1.24
309.453	1.27
309.828	1.2
310.202	1.17
310.576	1.17
310.951	1.2
311.325	1.21
311.699	1.18
312.073	1.19
312.447	1.21
312.821	1.14
313.196	1.16
313.57	1.11
313.944	1.16
314.317	1.21
314.691	1.2
315.065	1.18
315.439	1.27
315.813	1.21
316.187	1.26
316.56	1.29
316.934	1.22
317.308	1.19
317.681	1.15
318.055	1.14
318.428	1.24
318.802	1.24
319.175	1.15
319.549	1.19
319.922	1.15
320.295	1.2
320.669	1.24
321.042	1.19
321.415	1.27
321.788	1.23
322.162	1.13
322.535	1.19
322.908	1.23
323.281	1.18
323.654	1.24
324.027	1.15
324.4	1.19
324.773	1.19
325.145	1.22
325.518	1.11
325.891	1.19
326.264	1.26
326.636	1.16
327.009	1.12
327.382	1.25
327.754	1.26
328.127	1.2
328.499	1.23
328.872	1.28
329.244	1.26
329.616	1.19
329.989	1.21
330.361	1.25
330.733	1.24
331.106	1.21
331.478	1.38
331.85	1.3
332.222	1.14
332.594	1.26
332.966	1.32
333.338	1.29
333.71	1.28
334.082	1.33
334.454	1.17
334.826	1.24
335.197	1.25
335.569	1.31
335.941	1.26
336.312	1.24
336.684	1.3
337.056	1.26
337.427	1.34
337.799	1.31
338.17	1.28
338.542	1.21
338.913	1.3
339.284	1.38
339.656	1.23
340.027	1.33
340.398	1.25
340.769	1.34
341.141	1.36
341.512	1.32
341.883	1.32
342.254	1.29
342.625	1.32
342.996	1.26
343.367	1.25
343.738	1.32
344.108	1.28
344.479	1.38
344.85	1.2
345.221	1.45
345.591	1.22
345.962	1.34
346.333	1.28
346.703	1.17
347.074	1.19
347.444	1.16
347.815	1.27
348.185	1.29
348.556	1.25
348.926	1.23
349.296	1.4
349.666	1.31
350.037	1.22
350.407	1.18
350.777	1.25
351.147	1.35
351.517	1.23
351.887	1.35
352.257	1.31
352.627	1.31
352.997	1.26
353.367	1.27
353.737	1.36
354.106	1.38
354.476	1.38
354.846	1.42
355.216	1.36
355.585	1.39
355.955	1.46
356.324	1.43
356.694	1.36
357.063	1.32
357.433	1.35
357.802	1.38
358.171	1.4
358.541	1.36
358.91	1.37
359.279	1.44
359.648	1.34
360.017	1.48
360.387	1.42
360.756	1.39
361.125	1.37
361.494	1.61
361.863	1.46
362.231	1.54
362.6	1.55
362.969	1.64
363.338	1.39
363.707	1.57
364.075	1.55
364.444	1.43
364.813	1.44
365.181	1.45
365.55	1.54
365.918	1.64
366.287	1.51
366.655	1.74
367.024	1.48
367.392	1.58
367.76	1.42
368.128	1.44
368.497	1.47
368.865	1.43
369.233	1.55
369.601	1.51
369.969	1.63
370.337	1.56
370.705	1.58
371.073	1.47
371.441	1.52
371.809	1.57
372.177	1.5
372.544	1.51
372.912	1.48
373.28	1.53
373.647	1.64
374.015	1.76
374.383	1.77
374.75	1.59
375.118	1.64
375.485	1.57
375.853	1.52
376.22	1.55
376.587	1.41
376.955	1.61
377.322	1.6
377.689	1.57
378.056	1.5
378.423	1.49
378.79	1.65
379.157	1.66
379.524	1.63
379.891	1.47
380.258	1.67
380.625	1.74
380.992	1.48
381.359	1.72
381.726	1.63
382.092	1.5
382.459	1.51
382.826	1.52
383.192	1.52
383.559	1.57
383.925	1.62
384.292	1.58
384.658	1.69
385.025	1.59
385.391	1.81
385.757	1.69
386.123	1.58
386.49	1.6
386.856	1.7
387.222	1.67
387.588	1.53
387.954	1.72
388.32	1.68
388.686	1.63
389.052	1.56
389.418	1.65
389.784	1.52
390.15	1.54
390.515	1.35
390.881	1.85
391.247	1.51
391.613	1.66
391.978	1.56
392.344	1.6
392.709	1.69
393.075	1.67
393.44	1.64
393.806	1.69
394.171	1.49
394.536	1.49
394.902	1.62
395.267	1.59
395.632	1.44
395.997	1.47
396.362	1.57
396.727	1.67
397.092	1.52
397.457	1.6
397.822	1.59
398.187	1.59
398.552	1.55
398.917	1.59
399.282	1.52
399.646	1.61
400.011	1.76
400.376	1.43
400.74	1.57
401.105	1.69
401.47	1.5
401.834	1.64
402.199	1.61
402.563	1.61
402.927	1.51
403.292	1.6
403.656	1.56
404.02	1.6
404.384	1.82
404.749	1.65
405.113	1.69
405.477	1.63
405.841	1.61
406.205	1.56
406.569	1.55
406.933	1.58
407.296	1.63
407.66	1.52
408.024	1.47
408.388	1.82
408.752	1.57
409.115	1.81
409.479	1.51
409.842	1.49
410.206	1.51
410.569	1.46
410.933	1.52
411.296	1.42
411.66	1.58
412.023	1.43
412.386	1.52
412.749	1.38
413.113	1.5
413.476	1.42
413.839	1.4
414.202	1.59
414.565	1.37
414.928	1.45
415.291	1.4
415.654	1.44
416.017	1.45
416.38	1.5
416.742	1.42
417.105	1.35
417.468	1.33
417.83	1.49
418.193	1.46
418.556	1.33
418.918	1.45
419.281	1.32
419.643	1.41
420.005	1.41
420.368	1.44
420.73	1.34
421.092	1.48
421.455	1.52
421.817	1.36
422.179	1.41
422.541	1.47
422.903	1.57
423.265	1.48
423.627	1.42
423.989	1.36
424.351	1.38
424.713	1.39
425.075	1.46
425.436	1.34
425.798	1.43
426.16	1.5
426.521	1.45
426.883	1.38
427.245	1.46
427.606	1.33
427.967	1.29
428.329	1.35
428.69	1.45
429.052	1.33
429.413	1.38
429.774	1.41
430.135	1.44
430.497	1.36
430.858	1.34
431.219	1.37
431.58	1.36
431.941	1.33
432.302	1.31
432.663	1.39
433.024	1.41
433.384	1.41
433.745	1.29
434.106	1.4
434.467	1.42
434.827	1.4
435.188	1.31
435.548	1.49
435.909	1.25
436.269	1.38
436.63	1.29
436.99	1.38
437.351	1.22
437.711	1.37
438.071	1.29
438.431	1.29
438.792	1.27
439.152	1.28
439.512	1.29
439.872	1.25
440.232	1.32
440.592	1.29
440.952	1.26
441.312	1.26
441.671	1.29
442.031	1.22
442.391	1.22
442.751	1.22
443.11	1.22
443.47	1.19
443.83	1.19
444.189	1.22
444.549	1.18
444.908	1.16
445.267	1.23
445.627	1.18
445.986	1.18
446.345	1.13
446.705	1.14
447.064	1.16
447.423	1.16
447.782	1.15
448.141	1.12
448.5	1.05
448.859	1.11
449.218	1.08
449.577	1.11
449.936	1.15
450.295	1.11
450.653	1.06
451.012	1.07
451.371	1.07
451.729	1.07
452.088	1.08
452.447	1.06
452.805	1.06
453.163	1.06
453.522	1.02
453.88	1.02
454.239	1.01
454.597	0.99
454.955	0.99
455.313	0.97
455.671	0.97
456.029	0.98
456.388	0.97
456.746	0.94
457.104	0.94
457.461	0.92
457.819	0.91
458.177	0.9
458.535	0.89
458.893	0.9
459.25	0.88
459.608	0.88
459.966	0.85
460.323	0.86
460.681	0.82
461.038	0.82
461.396	0.81
461.753	0.8
462.111	0.8
462.468	0.79
462.825	0.77
463.182	0.76
463.54	0.75
463.897	0.75
464.254	0.74
464.611	0.73
464.968	0.7
465.325	0.71
465.682	0.7
466.039	0.68
466.395	0.68
466.752	0.68
467.109	0.65
467.466	0.65
467.822	0.64
468.179	0.63
468.535	0.62
468.892	0.62
469.248	0.61
469.605	0.59
469.961	0.59
470.318	0.59
470.674	0.58
471.03	0.57
471.386	0.56
471.743	0.55
472.099	0.55
472.455	0.54
472.811	0.52
473.167	0.52
473.523	0.49
473.879	0.5
474.235	0.49
474.59	0.48
474.946	0.47
475.302	0.48
475.657	0.46
476.013	0.46
476.369	0.44
476.724	0.45
477.08	0.44
477.435	0.44
477.791	0.42
478.146	0.42
478.501	0.42
478.857	0.41
479.212	0.41
479.567	0.4
479.922	0.38
480.277	0.39
480.632	0.38
480.987	0.37
481.342	0.37
481.697	0.36
482.052	0.35
482.407	0.35
482.762	0.34
483.116	0.33
483.471	0.33
483.826	0.32
484.18	0.32
484.535	0.31
484.89	0.3
485.244	0.31
485.598	0.3
485.953	0.3
486.307	0.29
486.661	0.29
487.016	0.28
487.37	0.28
487.724	0.28
488.078	0.28
488.432	0.27
488.786	0.27
489.14	0.27
489.494	0.26
489.848	0.26
490.202	0.25
490.556	0.25
490.91	0.25
491.263	0.24
491.617	0.24
491.971	0.25
492.324	0.24
492.678	0.24
493.031	0.24
493.385	0.23
493.738	0.22
494.091	0.22
494.445	0.22
494.798	0.22
495.151	0.22
495.504	0.22
495.857	0.21
496.21	0.22
496.564	0.21
496.916	0.21
497.269	0.2
497.622	0.2
497.975	0.2
498.328	0.21
498.681	0.2
499.033	0.2
499.386	0.19
499.739	0.19
500.091	0.19
500.444	0.19
500.796	0.19
501.149	0.18
501.501	0.19
501.854	0.19
502.206	0.19
502.558	0.19
502.91	0.19
503.263	0.18
503.615	0.18
503.967	0.18
504.319	0.18
504.671	0.18
505.023	0.16
505.375	0.17
505.726	0.17
506.078	0.17
506.43	0.17
506.782	0.16
507.133	0.17
507.485	0.17
507.837	0.17
508.188	0.17
508.54	0.16
508.891	0.17
509.243	0.16
509.594	0.16
509.945	0.16
510.296	0.16
510.648	0.16
510.999	0.16
511.35	0.16
511.701	0.16
512.052	0.16
512.403	0.16
512.754	0.15
513.105	0.15
513.456	0.14
513.807	0.14
514.157	0.15
514.508	0.15
514.859	0.14
515.209	0.15
515.56	0.15
515.91	0.14
516.261	0.15
516.611	0.14
516.962	0.15
517.312	0.15
517.662	0.15
518.013	0.15
518.363	0.15
518.713	0.15
519.063	0.15
519.413	0.15
519.763	0.14
520.113	0.14
520.463	0.15
520.813	0.15
521.163	0.15
521.512	0.14
521.862	0.14
522.212	0.15
522.562	0.15
522.911	0.15
523.261	0.14
523.61	0.15
523.96	0.15
524.309	0.15
524.658	0.15
525.008	0.15
525.357	0.15
525.706	0.15
526.056	0.14
526.405	0.15
526.754	0.15
527.103	0.14
527.452	0.15
527.801	0.15
528.15	0.15
528.499	0.15
528.847	0.15
529.196	0.16
529.545	0.15
529.893	0.15
530.242	0.15
530.591	0.15
530.939	0.16
531.288	0.15
531.636	0.15
531.985	0.15
532.333	0.15
532.681	0.15
533.029	0.15
533.378	0.15
533.726	0.14
534.074	0.15
534.422	0.14
534.77	0.15
535.118	0.15
535.466	0.15
535.814	0.15
536.162	0.15
536.509	0.15
536.857	0.15
537.205	0.15
537.552	0.15
537.9	0.15
538.248	0.15
538.595	0.15
538.943	0.15
539.29	0.14
539.637	0.14
539.985	0.15
540.332	0.14
540.679	0.14
541.026	0.14
541.373	0.14
541.721	0.14
542.068	0.14
542.415	0.14
542.762	0.14
543.108	0.14
543.455	0.13
543.802	0.13
544.149	0.15
544.496	0.14
544.842	0.14
545.189	0.13
545.535	0.14
545.882	0.14
546.228	0.14
546.575	0.14
546.921	0.14
547.267	0.14
547.614	0.15
547.96	0.14
548.306	0.14
548.652	0.14
548.998	0.15
549.344	0.14
549.69	0.14
550.036	0.14
550.382	0.14
550.728	0.14
551.074	0.14
551.42	0.14
551.765	0.14
552.111	0.14
552.457	0.15
552.802	0.14
553.148	0.14
553.493	0.14
553.839	0.15
554.184	0.15
554.529	0.13
554.875	0.15
555.22	0.15
555.565	0.15
555.91	0.15
556.255	0.15
556.6	0.16
556.945	0.15
557.29	0.14
557.635	0.15
557.98	0.15
558.325	0.14
558.67	0.14
559.014	0.15
559.359	0.14
559.704	0.14
560.048	0.14
560.393	0.14
560.737	0.13
561.082	0.14
561.426	0.13
561.77	0.14
562.115	0.13
562.459	0.14
562.803	0.14
563.147	0.14
563.491	0.14
563.835	0.14
564.179	0.14
564.523	0.14
564.867	0.13
565.211	0.14
565.555	0.14
565.899	0.14
566.242	0.15
566.586	0.13
566.93	0.15
567.273	0.16
567.617	0.14
567.96	0.15
568.304	0.15
568.647	0.14
568.99	0.15
569.334	0.15
569.677	0.15
570.02	0.15
570.363	0.15
570.706	0.15
571.049	0.15
571.392	0.15
571.735	0.14
572.078	0.15
572.421	0.15
572.764	0.15
573.106	0.15
573.449	0.15
573.792	0.15
574.134	0.14
574.477	0.14
574.819	0.14
575.162	0.15
575.504	0.14
575.847	0.15
576.189	0.14
576.531	0.15
576.873	0.14
577.215	0.14
577.558	0.15
577.9	0.14
578.242	0.14
578.584	0.14
578.926	0.14
579.267	0.13
579.609	0.14
579.951	0.14
580.293	0.13
580.634	0.14
580.976	0.14
581.318	0.14
581.659	0.14
582.001	0.14
582.342	0.14
582.683	0.14
583.025	0.13
583.366	0.14
583.707	0.14
584.049	0.14
584.39	0.14
584.731	0.14
585.072	0.14
585.413	0.14
585.754	0.14
586.095	0.14
586.435	0.14
586.776	0.14
587.117	0.14
587.458	0.13
587.798	0.13
588.139	0.13
588.48	0.13
588.82	0.14
589.161	0.14
589.501	0.13
589.841	0.13
590.182	0.13
590.522	0.13
590.862	0.13
591.202	0.13
591.542	0.14
591.882	0.13
592.222	0.14
592.562	0.13
592.902	0.13
593.242	0.13
593.582	0.14
593.922	0.13
594.261	0.13
594.601	0.14
594.941	0.14
595.28	0.13
595.62	0.13
595.959	0.13
596.299	0.13
596.638	0.13
596.977	0.13
597.317	0.14
597.656	0.13
597.995	0.13
598.334	0.14
598.673	0.13
599.012	0.13
599.351	0.13
599.69	0.13
600.029	0.14
600.368	0.14
600.707	0.14
601.046	0.13
601.384	0.14
601.723	0.14
602.061	0.13
602.4	0.14
602.738	0.14
603.077	0.14
603.415	0.12
603.754	0.13
604.092	0.14
604.43	0.14
604.768	0.14
605.107	0.14
605.445	0.13
605.783	0.13
606.121	0.13
606.459	0.13
606.796	0.14
607.134	0.13
607.472	0.13
607.81	0.14
608.148	0.14
608.485	0.14
608.823	0.13
609.16	0.13
609.498	0.14
609.835	0.14
610.173	0.13
610.51	0.14
610.847	0.14
611.185	0.14
611.522	0.14
611.859	0.14
612.196	0.14
612.533	0.14
612.87	0.15
613.207	0.14
613.544	0.15
613.881	0.15
614.217	0.15
614.554	0.14
614.891	0.15
615.228	0.14
615.564	0.14
615.901	0.15
616.237	0.15
616.574	0.14
616.91	0.14
617.246	0.14
617.583	0.14
617.919	0.14
618.255	0.15
618.591	0.13
618.927	0.14
619.263	0.15
619.599	0.14
619.935	0.14
620.271	0.14
620.607	0.14
620.943	0.14
621.279	0.14
621.614	0.14
621.95	0.14
622.286	0.13
622.621	0.13
622.957	0.13
623.292	0.13
623.627	0.14
623.963	0.13
624.298	0.13
624.633	0.13
624.968	0.12
625.304	0.12
625.639	0.13
625.974	0.13
626.309	0.12
626.644	0.13
626.979	0.14
627.313	0.13
627.648	0.12
627.983	0.13
628.318	0.13
628.652	0.13
628.987	0.13
629.321	0.13
629.656	0.13
629.99	0.12
630.325	0.13
630.659	0.13
630.993	0.12
631.327	0.12
631.662	0.12
631.996	0.12
632.33	0.13
632.664	0.13
632.998	0.12
633.332	0.12
633.666	0.12
633.999	0.12
634.333	0.11
634.667	0.12
635.001	0.11
635.334	0.11
635.668	0.12
636.001	0.11
636.335	0.12
636.668	0.12
637.001	0.11
637.335	0.11
637.668	0.11
638.001	0.11
638.334	0.11
638.668	0.12
639.001	0.12
639.334	0.12
639.667	0.12
639.999	0.11
640.332	0.12
640.665	0.11
640.998	0.11
641.331	0.12
641.663	0.12
641.996	0.11
642.328	0.12
642.661	0.12
642.993	0.12
643.326	0.12
643.658	0.11
643.99	0.11
644.323	0.11
644.655	0.12
644.987	0.12
645.319	0.12
645.651	0.12
645.983	0.11
646.315	0.11
646.647	0.12
646.979	0.12
647.31	0.13
647.642	0.11
647.974	0.13
648.305	0.13
648.637	0.13
648.968	0.13
649.3	0.12
649.631	0.13
649.963	0.12
650.294	0.12
650.625	0.12
650.957	0.13
651.288	0.12
651.619	0.12
651.95	0.12
652.281	0.12
652.612	0.12
652.943	0.12
653.274	0.12
653.604	0.11
653.935	0.11
654.266	0.11
654.596	0.11
654.927	0.11
655.258	0.12
655.588	0.12
655.918	0.12
656.249	0.1
656.579	0.11
656.909	0.12
657.24	0.11
657.57	0.12
657.9	0.11
658.23	0.12
658.56	0.12
658.89	0.12
659.22	0.11
659.55	0.12
659.88	0.12
660.209	0.11
660.539	0.13
660.869	0.12
661.198	0.12
661.528	0.11
661.857	0.11
662.187	0.12
662.516	0.11
662.846	0.11
663.175	0.11
663.504	0.11
663.833	0.11
664.163	0.11
664.492	0.11
664.821	0.11
665.15	0.11
665.479	0.11
665.807	0.11
666.136	0.11
666.465	0.11
666.794	0.11
667.122	0.11
667.451	0.11
667.78	0.11
668.108	0.11
668.437	0.1
668.765	0.11
669.093	0.11
669.422	0.1
669.75	0.1
670.078	0.11
670.406	0.11
670.734	0.11
671.062	0.1
671.39	0.1
671.718	0.1
672.046	0.1
672.374	0.1
672.702	0.1
673.029	0.1
673.357	0.1
673.685	0.11
674.012	0.11
674.34	0.1
674.667	0.11
674.995	0.11
675.322	0.11
675.649	0.1
675.977	0.1
676.304	0.1
676.631	0.1
676.958	0.1
677.285	0.1
677.612	0.1
677.939	0.1
678.266	0.1
678.593	0.09
678.92	0.1
679.246	0.09
679.573	0.09
679.9	0.09
680.226	0.09
680.553	0.09
680.879	0.09
681.206	0.1
681.532	0.08
681.858	0.09
682.184	0.09
682.511	0.08
682.837	0.09
683.163	0.09
683.489	0.09
683.815	0.09
684.141	0.09
684.467	0.09
684.793	0.09
685.118	0.09
685.444	0.09
685.77	0.09
686.095	0.09
686.421	0.09
686.746	0.09
687.072	0.1
687.397	0.09
687.723	0.09
688.048	0.09
688.373	0.09
688.698	0.09
689.023	0.09
689.349	0.09
689.674	0.09
689.999	0.09
690.323	0.08
690.648	0.07
690.973	0.08
691.298	0.08
691.623	0.08
691.947	0.08
692.272	0.08
692.596	0.08
692.921	0.08
693.245	0.07
693.57	0.08
693.894	0.08
694.218	0.08
694.543	0.08
694.867	0.07
695.191	0.08
695.515	0.08
695.839	0.08
696.163	0.07
696.487	0.08
696.811	0.08
697.135	0.07
697.458	0.08
697.782	0.08
698.106	0.08
698.429	0.08
698.753	0.08
699.076	0.08
699.4	0.07
699.723	0.08
700.046	0.07
700.37	0.08
700.693	0.08
701.016	0.08
701.339	0.08
701.662	0.08
701.985	0.08
702.308	0.08
702.631	0.09
702.954	0.09
703.277	0.09
703.599	0.08
703.922	0.08
704.245	0.08
704.567	0.07
704.89	0.08
705.212	0.08
705.535	0.07
705.857	0.07
706.179	0.07
706.502	0.07
706.824	0.06
707.146	0.06
707.468	0.07
707.79	0.06
708.112	0.07
708.434	0.07
708.756	0.07
709.078	0.07
709.399	0.06
709.721	0.07
710.043	0.07
710.364	0.07
710.686	0.07
711.007	0.07
711.329	0.07
711.65	0.06
711.972	0.07
712.293	0.07
712.614	0.07
712.935	0.07
713.256	0.06
713.577	0.07
713.898	0.07
714.219	0.07
714.54	0.06
714.861	0.06
715.182	0.07
715.503	0.07
715.823	0.07
716.144	0.06
716.464	0.05
716.785	0.06
717.105	0.06
717.426	0.06
717.746	0.06
718.066	0.06
718.387	0.06
718.707	0.05
719.027	0.06
719.347	0.05
719.667	0.05
719.987	0.05
720.307	0.05
720.627	0.06
720.947	0.06
721.266	0.06
721.586	0.05
721.906	0.05
722.225	0.04
722.545	0.05
722.864	0.05
723.184	0.05
723.503	0.06
723.823	0.06
724.142	0.05
724.461	0.05
724.78	0.06
725.099	0.05
725.418	0.05
725.737	0.05
726.056	0.05
726.375	0.06
726.694	0.06
727.013	0.06
727.331	0.05
727.65	0.05
727.969	0.06
728.287	0.06
728.606	0.06
728.924	0.06
729.242	0.05
729.561	0.05
729.879	0.05
730.197	0.05
730.515	0.04
730.834	0.04
731.152	0.05
731.47	0.05
731.788	0.05
732.105	0.05
732.423	0.05
732.741	0.04
733.059	0.05
733.376	0.05
733.694	0.04
734.012	0.04
734.329	0.05
734.647	0.05
734.964	0.05
735.281	0.05
735.599	0.05
735.916	0.06
736.233	0.04
736.55	0.05
736.867	0.05
737.184	0.05
737.501	0.05
737.818	0.06
738.135	0.06
738.452	0.06
738.768	0.06
739.085	0.05
739.402	0.05
739.718	0.05
740.035	0.05
740.351	0.05
740.668	0.06
740.984	0.05
741.3	0.05
741.617	0.05
741.933	0.05
742.249	0.06
742.565	0.05
742.881	0.07
743.197	0.05
743.513	0.05
743.829	0.05
744.144	0.05
744.46	0.05
744.776	0.06
745.091	0.05
745.407	0.05
745.722	0.05
746.038	0.05
746.353	0.04
746.669	0.05
746.984	0.04
747.299	0.04
747.614	0.05
747.93	0.05
748.245	0.04
748.56	0.05
748.875	0.04
749.189	0.05
749.504	0.05
749.819	0.04
750.134	0.05
750.448	0.05
750.763	0.05
751.078	0.05
751.392	0.05
751.707	0.06
752.021	0.06
752.335	0.06
752.65	0.05
752.964	0.05
753.278	0.05
753.592	0.05
753.906	0.05
754.22	0.06
754.534	0.05
754.848	0.05
755.162	0.05
755.476	0.06
755.789	0.06
756.103	0.05
756.417	0.05
756.73	0.06
757.044	0.05
757.357	0.05
757.671	0.06
757.984	0.05
758.297	0.06
758.61	0.06
758.924	0.05
759.237	0.05
759.55	0.05
759.863	0.05
760.176	0.05
760.488	0.05
760.801	0.05
761.114	0.04
761.427	0.04
761.739	0.05
762.052	0.04
762.365	0.05
762.677	0.05
762.99	0.05
763.302	0.04
763.614	0.05
763.926	0.05
764.239	0.05
764.551	0.04
764.863	0.05
765.175	0.05
765.487	0.04
765.799	0.04
766.111	0.05
766.423	0.04
766.734	0.04
767.046	0.04
767.358	0.05
767.669	0.04
767.981	0.05
768.292	0.04
768.604	0.04
768.915	0.04
769.226	0.04
769.537	0.03
769.849	0.05
770.16	0.04
770.471	0.03
770.782	0.03
771.093	0.04
771.404	0.03
771.715	0.03
772.025	0.03
772.336	0.04
772.647	0.02
772.957	0.04
773.268	0.04
773.578	0.04
773.889	0.04
774.199	0.04
774.51	0.03
774.82	0.03
775.13	0.03
775.44	0.04
775.75	0.04
776.06	0.04
776.37	0.03
776.68	0.04
776.99	0.04
777.3	0.03
777.61	0.05
777.92	0.04
778.229	0.03
778.539	0.04
778.848	0.03
779.158	0.04
779.467	0.04
779.777	0.04
780.086	0.04
780.395	0.03
780.704	0.03
781.013	0.02
781.323	0.03
781.632	0.03
781.941	0.04
782.249	0.03
782.558	0.03
782.867	0.03
783.176	0.03
783.485	0.03
783.793	0.03
784.102	0.04
784.41	0.03
784.719	0.03
785.027	0.03
785.335	0.03
785.644	0.04
785.952	0.03
786.26	0.03
786.568	0.03
786.876	0.02
787.184	0.03
787.492	0.03
787.8	0.03
788.108	0.03
788.416	0.04
788.723	0.04
789.031	0.03
789.338	0.03
789.646	0.03
789.953	0.04
790.261	0.04
790.568	0.04
790.876	0.03
791.183	0.05
791.49	0.04
791.797	0.03
792.104	0.03
792.411	0.04
792.718	0.04
793.025	0.05
793.332	0.04
793.639	0.05
793.945	0.05
794.252	0.05
794.559	0.04
794.865	0.05
795.172	0.04
795.478	0.04
795.784	0.05
796.091	0.04
796.397	0.05
796.703	0.04
797.009	0.05
797.315	0.04
797.622	0.05
797.927	0.04
798.233	0.04
798.539	0.04
798.845	0.04
799.151	0.04
799.456	0.04
799.762	0.04
800.068	0.04
800.373	0.04
800.679	0.03
800.984	0.03
801.289	0.03
801.595	0.03
801.9	0.03
802.205	0.03
802.51	0.03
802.815	0.04
803.12	0.03
803.425	0.03
803.73	0.02
804.035	0.03
804.339	0.03
804.644	0.03
804.949	0.04
805.253	0.03
805.558	0.03
805.862	0.03
806.167	0.03
806.471	0.03
806.775	0.03
807.08	0.04
807.384	0.03
807.688	0.05
807.992	0.04
808.296	0.04
808.6	0.04
808.904	0.05
809.207	0.04
809.511	0.04
809.815	0.05
810.119	0.04
810.422	0.05
810.726	0.05
811.029	0.05
811.332	0.04
811.636	0.05
811.939	0.05
812.242	0.04
812.546	0.05
812.849	0.04
813.152	0.05
813.455	0.04
813.758	0.04
814.06	0.05
814.363	0.04
814.666	0.05
814.969	0.04
815.271	0.04
815.574	0.04
815.877	0.04
816.179	0.04
816.481	0.04
816.784	0.04
817.086	0.03
817.388	0.03
817.69	0.03
817.993	0.03
818.295	0.03
818.597	0.04
818.899	0.03
819.2	0.03
819.502	0.03
819.804	0.03
820.106	0.03
820.407	0.03
820.709	0.03
821.01	0.03
821.312	0.03
821.613	0.03
821.915	0.02
822.216	0.03
822.517	0.02
822.818	0.02
823.119	0.03
823.42	0.03
823.721	0.02
824.022	0.02
824.323	0.03
824.624	0.02
824.925	0.03
825.226	0.04
825.526	0.02
825.827	0.02
826.127	0.03
826.428	0.02
826.728	0.02
827.028	0.02
827.329	0.02
827.629	0.01
827.929	0.02
828.229	0.03
828.529	0.02
828.829	0.02
829.129	0.02
829.429	0.02
829.729	0.01
830.029	0.01
830.328	0.02
830.628	0.02
830.927	0.01
831.227	0.01
831.526	0.02
831.826	0.02
832.125	0.02
832.424	0.02
832.724	0.01
833.023	0.02
833.322	0.02
833.621	0.01
833.92	0
834.219	0
834.518	0.01
834.816	0.01
835.115	0.01
835.414	0
835.712	0
836.011	0.01
836.309	0
836.608	-0
836.906	-0
837.205	-0.01
837.503	-0
837.801	-0.01
838.099	-0.01
838.397	-0.02
838.695	-0.02
838.993	-0.01
839.291	-0.03
839.589	-0.02
839.887	-0.02
840.184	-0.03
840.482	-0.04
840.78	-0.03
841.077	-0.03
841.375	-0.03
841.672	-0.04
841.969	-0.04
842.267	-0.04
842.564	-0.04
842.861	-0.04
843.158	-0.04
843.455	-0.06
843.752	-0.05
844.049	-0.05
844.346	-0.05
844.643	-0.06
844.94	-0.05
845.236	-0.04
845.533	-0.05
845.83	-0.04
846.126	-0.05
846.423	-0.04
846.719	-0.06
847.015	-0.04
847.312	-0.05
847.608	-0.06
847.904	-0.05
848.2	-0.05
848.496	-0.06
848.792	-0.06
849.088	-0.05
849.384	-0.06
849.68	-0.07
849.975	-0.06
850.271	-0.06
850.567	-0.07
850.862	-0.07
851.158	-0.08
851.453	-0.08
851.748	-0.09
852.044	-0.08
852.339	-0.08
852.634	-0.09
852.929	-0.09
853.224	-0.09
853.519	-0.1
853.814	-0.09
854.109	-0.1
854.404	-0.1
854.699	-0.1
854.994	-0.1
855.288	-0.1
855.583	-0.1
855.877	-0.1
856.172	-0.11
856.466	-0.1
856.76	-0.11
857.055	-0.1
857.349	-0.12
857.643	-0.12
857.937	-0.13
858.231	-0.13
858.525	-0.12
858.819	-0.12
859.113	-0.13
859.407	-0.13
859.701	-0.13
859.994	-0.13
860.288	-0.13
860.581	-0.13
860.875	-0.13
861.168	-0.13
861.462	-0.13
861.755	-0.13
862.048	-0.14
862.341	-0.14
862.634	-0.13
862.928	-0.14
863.221	-0.14
863.513	-0.14
863.806	-0.13
864.099	-0.14
864.392	-0.14
864.685	-0.13
864.977	-0.13
865.27	-0.14
865.562	-0.14
865.855	-0.13
866.147	-0.13
866.44	-0.13
866.732	-0.13
867.024	-0.15
867.316	-0.13
867.608	-0.15
867.9	-0.14
868.192	-0.14
868.484	-0.14
868.776	-0.15
869.068	-0.14
869.359	-0.14
869.651	-0.14
869.943	-0.16
870.234	-0.16
870.526	-0.15
870.817	-0.16
871.108	-0.14
871.4	-0.14
871.691	-0.15
871.982	-0.16
872.273	-0.17
872.564	-0.16
872.855	-0.16
873.146	-0.17
873.437	-0.16
873.728	-0.17
874.019	-0.16
874.309	-0.17
874.6	-0.17
874.89	-0.17
875.181	-0.18
875.471	-0.17
875.762	-0.16
876.052	-0.17
876.342	-0.16
876.632	-0.17
876.922	-0.17
877.213	-0.16
877.503	-0.18
877.792	-0.17
878.082	-0.17
878.372	-0.16
878.662	-0.19
878.952	-0.17
879.241	-0.16
879.531	-0.17
879.82	-0.17
880.11	-0.17
880.399	-0.17
880.688	-0.17
880.978	-0.17
881.267	-0.17
