Data from 12-12-AQDScycling_Absorbance__191__00191.txt Node

Date: Tue Dec 12 11:44:29 EST 2023
User: kyuminlee
Spectrometer: FLMS00943
Trigger mode: 0
Integration Time (sec): 1.000000E-1
Scans to average: 1
Electric dark correction enabled: true
Nonlinearity correction enabled: false
Boxcar width: 0
XAxis mode: Wavelengths
Number of Pixels in Spectrum: 2048
>>>>>Begin Spectral Data<<<<<
179.651	0.54
180.037	0.54
180.424	0.54
180.81	-0.01
181.197	0.69
181.583	-0
181.97	-0.2
182.356	-0
182.743	-0.26
183.129	-0
183.515	-0
183.901	-0
184.288	1.52
184.674	0.12
185.06	-0.87
185.446	0.27
185.832	-0
186.218	-0
186.604	1.65
186.99	-0.05
187.376	-0
187.762	-0
188.148	-0
188.534	0.2
188.92	0.18
189.305	-0.03
189.691	0.21
190.077	0.22
190.463	0.15
190.848	0.14
191.234	0.2
191.619	0.1
192.005	0.16
192.391	0.15
192.776	0.14
193.161	0.18
193.547	0.17
193.932	0.15
194.318	0.08
194.703	0.14
195.088	0.3
195.473	0.16
195.859	0.15
196.244	0.29
196.629	0.18
197.014	0.28
197.399	0.34
197.784	0.22
198.169	0.14
198.554	0.23
198.939	0.14
199.324	0.12
199.709	0.12
200.094	0.14
200.478	0.31
200.863	0.27
201.248	0.23
201.633	0.35
202.017	0.09
202.402	0.23
202.787	0.4
203.171	0.22
203.556	0.38
203.94	0.16
204.325	0.29
204.709	0.15
205.093	0.24
205.478	0.11
205.862	0.16
206.246	0.19
206.631	0.15
207.015	0.19
207.399	0.3
207.783	0.17
208.167	0.15
208.551	0.34
208.935	0.15
209.319	0.16
209.703	0.27
210.087	0.44
210.471	0.07
210.855	0.23
211.239	0.29
211.623	0.28
212.007	0.24
212.39	0.55
212.774	0.1
213.158	0.26
213.541	0.28
213.925	0.2
214.309	0.15
214.692	0.26
215.076	0.23
215.459	0.21
215.842	0.19
216.226	0.27
216.609	0.28
216.993	0.15
217.376	0.54
217.759	0.38
218.142	0.34
218.525	0.57
218.909	0.4
219.292	0.33
219.675	0.53
220.058	0.72
220.441	0.62
220.824	0.58
221.207	0.59
221.59	0.62
221.973	0.58
222.355	0.61
222.738	0.77
223.121	0.74
223.504	0.56
223.886	0.74
224.269	0.84
224.652	0.72
225.034	0.68
225.417	0.77
225.799	1.04
226.182	0.93
226.564	1.01
226.947	0.91
227.329	0.83
227.711	1.05
228.094	1.16
228.476	0.99
228.858	0.84
229.24	0.93
229.623	0.98
230.005	0.83
230.387	0.87
230.769	0.82
231.151	1.04
231.533	1.03
231.915	0.97
232.297	1.01
232.679	1.06
233.061	0.99
233.442	1.04
233.824	1.29
234.206	1.29
234.588	1.11
234.969	1.18
235.351	0.98
235.733	1.02
236.114	1.12
236.496	1.13
236.877	1.19
237.259	1.05
237.64	1.07
238.022	0.95
238.403	1.09
238.784	1.02
239.165	1.06
239.547	1.13
239.928	1.17
240.309	1.09
240.69	1.26
241.071	1.21
241.452	1.21
241.834	1.05
242.215	1.12
242.595	1.11
242.976	1.15
243.357	1.19
243.738	1.04
244.119	1.5
244.5	1.22
244.881	1.27
245.261	1.27
245.642	1.26
246.023	1.24
246.403	1.18
246.784	1.36
247.164	1.31
247.545	1.32
247.925	1.34
248.306	1.26
248.686	1.51
249.067	1.3
249.447	1.57
249.827	1.68
250.207	1.46
250.588	1.41
250.968	1.59
251.348	1.34
251.728	1.39
252.108	1.45
252.488	1.39
252.868	1.37
253.248	1.29
253.628	1.47
254.008	1.54
254.388	1.3
254.768	1.34
255.147	1.51
255.527	1.38
255.907	1.32
256.287	1.56
256.666	1.43
257.046	1.64
257.425	1.52
257.805	1.43
258.184	1.44
258.564	1.41
258.943	1.44
259.323	1.57
259.702	1.46
260.081	1.51
260.461	1.49
260.84	1.6
261.219	1.71
261.598	1.67
261.977	1.57
262.356	1.53
262.736	1.46
263.115	1.72
263.494	1.51
263.873	1.46
264.251	1.46
264.63	1.47
265.009	1.59
265.388	1.5
265.767	1.4
266.145	1.39
266.524	1.43
266.903	1.43
267.281	1.58
267.66	1.65
268.039	1.49
268.417	1.56
268.796	1.36
269.174	1.44
269.552	1.45
269.931	1.56
270.309	1.38
270.687	1.81
271.066	1.81
271.444	1.37
271.822	1.46
272.2	1.32
272.578	1.6
272.956	1.44
273.334	1.41
273.712	1.69
274.09	1.53
274.468	1.51
274.846	1.26
275.224	1.44
275.602	1.73
275.98	1.71
276.357	1.51
276.735	1.55
277.113	1.49
277.49	1.33
277.868	1.32
278.246	1.62
278.623	1.32
279.001	1.48
279.378	1.42
279.756	1.5
280.133	1.56
280.51	1.46
280.888	1.58
281.265	1.38
281.642	1.67
282.019	1.59
282.396	1.54
282.773	1.53
283.151	1.53
283.528	1.43
283.905	1.42
284.282	1.73
284.659	1.68
285.035	1.44
285.412	1.32
285.789	1.5
286.166	1.71
286.543	1.45
286.919	1.64
287.296	1.37
287.673	1.82
288.049	1.88
288.426	1.84
288.802	1.64
289.179	1.49
289.555	1.68
289.932	1.36
290.308	1.35
290.684	1.44
291.061	1.36
291.437	1.64
291.813	1.43
292.189	1.37
292.565	1.36
292.942	1.39
293.318	1.47
293.694	1.36
294.07	1.31
294.446	1.29
294.822	1.57
295.197	1.4
295.573	1.49
295.949	1.53
296.325	1.62
296.701	1.75
297.076	1.61
297.452	1.73
297.828	1.52
298.203	1.63
298.579	1.45
298.954	1.45
299.33	1.49
299.705	1.58
300.081	1.57
300.456	1.46
300.831	1.52
301.206	1.47
301.582	1.53
301.957	1.49
302.332	1.61
302.707	1.49
303.082	1.47
303.457	1.56
303.832	1.48
304.207	1.41
304.582	1.45
304.957	1.42
305.332	1.55
305.707	1.37
306.082	1.5
306.456	1.56
306.831	1.39
307.206	1.47
307.58	1.44
307.955	1.4
308.33	1.52
308.704	1.48
309.079	1.4
309.453	1.59
309.828	1.44
310.202	1.47
310.576	1.41
310.951	1.46
311.325	1.41
311.699	1.45
312.073	1.35
312.447	1.44
312.821	1.44
313.196	1.47
313.57	1.33
313.944	1.34
314.317	1.4
314.691	1.34
315.065	1.48
315.439	1.62
315.813	1.55
316.187	1.51
316.56	1.64
316.934	1.52
317.308	1.36
317.681	1.52
318.055	1.5
318.428	1.51
318.802	1.47
319.175	1.5
319.549	1.4
319.922	1.33
320.295	1.46
320.669	1.62
321.042	1.44
321.415	1.71
321.788	1.53
322.162	1.47
322.535	1.45
322.908	1.59
323.281	1.49
323.654	1.67
324.027	1.47
324.4	1.5
324.773	1.56
325.145	1.62
325.518	1.45
325.891	1.39
326.264	1.79
326.636	1.54
327.009	1.42
327.382	1.46
327.754	1.55
328.127	1.59
328.499	1.6
328.872	1.51
329.244	1.55
329.616	1.43
329.989	1.47
330.361	1.59
330.733	1.47
331.106	1.46
331.478	1.65
331.85	1.52
332.222	1.42
332.594	1.5
332.966	1.63
333.338	1.8
333.71	1.56
334.082	1.67
334.454	1.52
334.826	1.44
335.197	1.57
335.569	1.43
335.941	1.47
336.312	1.51
336.684	1.6
337.056	1.49
337.427	1.58
337.799	1.73
338.17	1.5
338.542	1.56
338.913	1.51
339.284	1.64
339.656	1.62
340.027	1.63
340.398	1.62
340.769	1.4
341.141	1.73
341.512	1.47
341.883	1.56
342.254	1.53
342.625	1.57
342.996	1.44
343.367	1.49
343.738	1.62
344.108	1.54
344.479	1.88
344.85	1.54
345.221	1.6
345.591	1.49
345.962	1.57
346.333	1.52
346.703	1.4
347.074	1.35
347.444	1.35
347.815	1.48
348.185	1.59
348.556	1.48
348.926	1.34
349.296	1.38
349.666	1.48
350.037	1.33
350.407	1.31
350.777	1.46
351.147	1.42
351.517	1.39
351.887	1.32
352.257	1.42
352.627	1.35
352.997	1.27
353.367	1.54
353.737	1.38
354.106	1.37
354.476	1.31
354.846	1.37
355.216	1.48
355.585	1.41
355.955	1.37
356.324	1.39
356.694	1.34
357.063	1.35
357.433	1.28
357.802	1.33
358.171	1.43
358.541	1.34
358.91	1.3
359.279	1.36
359.648	1.34
360.017	1.39
360.387	1.35
360.756	1.29
361.125	1.34
361.494	1.38
361.863	1.3
362.231	1.23
362.6	1.27
362.969	1.27
363.338	1.27
363.707	1.38
364.075	1.39
364.444	1.26
364.813	1.3
365.181	1.3
365.55	1.27
365.918	1.39
366.287	1.32
366.655	1.37
367.024	1.29
367.392	1.29
367.76	1.28
368.128	1.29
368.497	1.32
368.865	1.27
369.233	1.27
369.601	1.28
369.969	1.29
370.337	1.3
370.705	1.35
371.073	1.35
371.441	1.3
371.809	1.27
372.177	1.28
372.544	1.31
372.912	1.31
373.28	1.28
373.647	1.27
374.015	1.39
374.383	1.35
374.75	1.38
375.118	1.33
375.485	1.38
375.853	1.32
376.22	1.3
376.587	1.29
376.955	1.33
377.322	1.43
377.689	1.36
378.056	1.29
378.423	1.29
378.79	1.41
379.157	1.42
379.524	1.34
379.891	1.3
380.258	1.36
380.625	1.34
380.992	1.3
381.359	1.36
381.726	1.45
382.092	1.39
382.459	1.35
382.826	1.42
383.192	1.34
383.559	1.47
383.925	1.46
384.292	1.35
384.658	1.51
385.025	1.47
385.391	1.5
385.757	1.49
386.123	1.5
386.49	1.5
386.856	1.41
387.222	1.52
387.588	1.47
387.954	1.66
388.32	1.57
388.686	1.46
389.052	1.43
389.418	1.56
389.784	1.43
390.15	1.42
390.515	1.34
390.881	1.57
391.247	1.48
391.613	1.51
391.978	1.49
392.344	1.57
392.709	1.48
393.075	1.47
393.44	1.54
393.806	1.52
394.171	1.42
394.536	1.5
394.902	1.6
395.267	1.45
395.632	1.4
395.997	1.47
396.362	1.37
396.727	1.5
397.092	1.44
397.457	1.45
397.822	1.4
398.187	1.46
398.552	1.35
398.917	1.46
399.282	1.49
399.646	1.33
400.011	1.48
400.376	1.4
400.74	1.36
401.105	1.36
401.47	1.47
401.834	1.44
402.199	1.4
402.563	1.4
402.927	1.39
403.292	1.46
403.656	1.4
404.02	1.35
404.384	1.38
404.749	1.33
405.113	1.37
405.477	1.41
405.841	1.31
406.205	1.32
406.569	1.3
406.933	1.34
407.296	1.3
407.66	1.27
408.024	1.27
408.388	1.32
408.752	1.23
409.115	1.25
409.479	1.27
409.842	1.29
410.206	1.18
410.569	1.26
410.933	1.33
411.296	1.21
411.66	1.24
412.023	1.13
412.386	1.27
412.749	1.21
413.113	1.21
413.476	1.13
413.839	1.14
414.202	1.18
414.565	1.06
414.928	1.18
415.291	1.11
415.654	1.14
416.017	1.18
416.38	1.19
416.742	1.08
417.105	1.08
417.468	1.12
417.83	1.17
418.193	1.18
418.556	1.05
418.918	1.09
419.281	1.09
419.643	1.12
420.005	1.08
420.368	1.1
420.73	1.05
421.092	1.1
421.455	1.11
421.817	1.02
422.179	1.09
422.541	1.1
422.903	1.09
423.265	1.06
423.627	1.06
423.989	1.09
424.351	1.08
424.713	1.07
425.075	1.04
425.436	1.04
425.798	1.04
426.16	1.02
426.521	1.02
426.883	1.1
427.245	1.01
427.606	1.02
427.967	0.98
428.329	1.01
428.69	1.05
429.052	0.99
429.413	1.07
429.774	1.04
430.135	1.02
430.497	1.01
430.858	1
431.219	0.98
431.58	1
431.941	0.98
432.302	0.97
432.663	0.97
433.024	1
433.384	0.98
433.745	0.96
434.106	0.99
434.467	0.99
434.827	0.99
435.188	0.98
435.548	0.98
435.909	0.94
436.269	1.01
436.63	0.92
436.99	0.94
437.351	0.91
437.711	0.97
438.071	0.92
438.431	0.93
438.792	0.94
439.152	0.9
439.512	0.93
439.872	0.92
440.232	0.94
440.592	0.93
440.952	0.93
441.312	0.91
441.671	0.89
442.031	0.89
442.391	0.89
442.751	0.9
443.11	0.88
443.47	0.84
443.83	0.83
444.189	0.86
444.549	0.85
444.908	0.83
445.267	0.83
445.627	0.82
445.986	0.82
446.345	0.8
446.705	0.83
447.064	0.81
447.423	0.82
447.782	0.81
448.141	0.79
448.5	0.78
448.859	0.81
449.218	0.79
449.577	0.8
449.936	0.79
450.295	0.79
450.653	0.77
451.012	0.75
451.371	0.77
451.729	0.76
452.088	0.77
452.447	0.75
452.805	0.74
453.163	0.75
453.522	0.74
453.88	0.73
454.239	0.73
454.597	0.71
454.955	0.68
455.313	0.7
455.671	0.7
456.029	0.68
456.388	0.67
456.746	0.68
457.104	0.67
457.461	0.66
457.819	0.65
458.177	0.63
458.535	0.64
458.893	0.63
459.25	0.62
459.608	0.61
459.966	0.62
460.323	0.6
460.681	0.59
461.038	0.59
461.396	0.58
461.753	0.58
462.111	0.57
462.468	0.56
462.825	0.56
463.182	0.55
463.54	0.54
463.897	0.55
464.254	0.53
464.611	0.52
464.968	0.52
465.325	0.53
465.682	0.51
466.039	0.51
466.395	0.5
466.752	0.49
467.109	0.49
467.466	0.48
467.822	0.48
468.179	0.47
468.535	0.47
468.892	0.46
469.248	0.45
469.605	0.45
469.961	0.45
470.318	0.45
470.674	0.45
471.03	0.44
471.386	0.44
471.743	0.42
472.099	0.42
472.455	0.41
472.811	0.4
473.167	0.39
473.523	0.38
473.879	0.39
474.235	0.38
474.59	0.36
474.946	0.36
475.302	0.37
475.657	0.35
476.013	0.35
476.369	0.35
476.724	0.35
477.08	0.34
477.435	0.34
477.791	0.33
478.146	0.34
478.501	0.33
478.857	0.33
479.212	0.32
479.567	0.31
479.922	0.32
480.277	0.31
480.632	0.3
480.987	0.3
481.342	0.3
481.697	0.29
482.052	0.29
482.407	0.28
482.762	0.28
483.116	0.28
483.471	0.27
483.826	0.26
484.18	0.27
484.535	0.26
484.89	0.26
485.244	0.25
485.598	0.26
485.953	0.25
486.307	0.25
486.661	0.25
487.016	0.24
487.37	0.25
487.724	0.24
488.078	0.24
488.432	0.24
488.786	0.24
489.14	0.23
489.494	0.22
489.848	0.22
490.202	0.22
490.556	0.22
490.91	0.22
491.263	0.22
491.617	0.22
491.971	0.21
492.324	0.21
492.678	0.22
493.031	0.22
493.385	0.2
493.738	0.2
494.091	0.2
494.445	0.2
494.798	0.2
495.151	0.2
495.504	0.19
495.857	0.2
496.21	0.2
496.564	0.19
496.916	0.2
497.269	0.19
497.622	0.2
497.975	0.19
498.328	0.2
498.681	0.19
499.033	0.19
499.386	0.19
499.739	0.18
500.091	0.18
500.444	0.19
500.796	0.18
501.149	0.18
501.501	0.18
501.854	0.18
502.206	0.18
502.558	0.18
502.91	0.18
503.263	0.18
503.615	0.17
503.967	0.18
504.319	0.18
504.671	0.17
505.023	0.17
505.375	0.17
505.726	0.17
506.078	0.17
506.43	0.16
506.782	0.17
507.133	0.17
507.485	0.18
507.837	0.17
508.188	0.17
508.54	0.17
508.891	0.17
509.243	0.17
509.594	0.17
509.945	0.17
510.296	0.16
510.648	0.17
510.999	0.16
511.35	0.16
511.701	0.16
512.052	0.17
512.403	0.17
512.754	0.16
513.105	0.16
513.456	0.16
513.807	0.16
514.157	0.16
514.508	0.16
514.859	0.15
515.209	0.15
515.56	0.15
515.91	0.15
516.261	0.16
516.611	0.15
516.962	0.15
517.312	0.16
517.662	0.16
518.013	0.15
518.363	0.16
518.713	0.16
519.063	0.15
519.413	0.16
519.763	0.15
520.113	0.15
520.463	0.16
520.813	0.16
521.163	0.16
521.512	0.15
521.862	0.16
522.212	0.16
522.562	0.16
522.911	0.16
523.261	0.15
523.61	0.16
523.96	0.16
524.309	0.16
524.658	0.16
525.008	0.16
525.357	0.16
525.706	0.16
526.056	0.16
526.405	0.16
526.754	0.16
527.103	0.16
527.452	0.16
527.801	0.16
528.15	0.16
528.499	0.16
528.847	0.16
529.196	0.17
529.545	0.17
529.893	0.17
530.242	0.17
530.591	0.17
530.939	0.17
531.288	0.17
531.636	0.17
531.985	0.17
532.333	0.17
532.681	0.17
533.029	0.17
533.378	0.17
533.726	0.18
534.074	0.17
534.422	0.16
534.77	0.17
535.118	0.17
535.466	0.16
535.814	0.16
536.162	0.17
536.509	0.17
536.857	0.17
537.205	0.17
537.552	0.17
537.9	0.17
538.248	0.17
538.595	0.17
538.943	0.17
539.29	0.17
539.637	0.17
539.985	0.17
540.332	0.15
540.679	0.16
541.026	0.16
541.373	0.16
541.721	0.15
542.068	0.16
542.415	0.16
542.762	0.15
543.108	0.15
543.455	0.15
543.802	0.16
544.149	0.16
544.496	0.16
544.842	0.15
545.189	0.15
545.535	0.16
545.882	0.16
546.228	0.15
546.575	0.15
546.921	0.16
547.267	0.16
547.614	0.16
547.96	0.16
548.306	0.16
548.652	0.16
548.998	0.17
549.344	0.16
549.69	0.16
550.036	0.17
550.382	0.16
550.728	0.16
551.074	0.16
551.42	0.17
551.765	0.18
552.111	0.18
552.457	0.18
552.802	0.17
553.148	0.16
553.493	0.16
553.839	0.17
554.184	0.17
554.529	0.16
554.875	0.17
555.22	0.17
555.565	0.17
555.91	0.17
556.255	0.18
556.6	0.18
556.945	0.16
557.29	0.17
557.635	0.17
557.98	0.17
558.325	0.17
558.67	0.17
559.014	0.17
559.359	0.18
559.704	0.17
560.048	0.16
560.393	0.17
560.737	0.16
561.082	0.17
561.426	0.16
561.77	0.17
562.115	0.16
562.459	0.16
562.803	0.16
563.147	0.16
563.491	0.16
563.835	0.16
564.179	0.17
564.523	0.16
564.867	0.16
565.211	0.16
565.555	0.16
565.899	0.17
566.242	0.16
566.586	0.17
566.93	0.16
567.273	0.17
567.617	0.17
567.96	0.17
568.304	0.17
568.647	0.17
568.99	0.17
569.334	0.18
569.677	0.17
570.02	0.18
570.363	0.17
570.706	0.17
571.049	0.17
571.392	0.17
571.735	0.16
572.078	0.17
572.421	0.18
572.764	0.17
573.106	0.17
573.449	0.16
573.792	0.17
574.134	0.17
574.477	0.18
574.819	0.17
575.162	0.17
575.504	0.17
575.847	0.17
576.189	0.17
576.531	0.17
576.873	0.17
577.215	0.17
577.558	0.17
577.9	0.16
578.242	0.17
578.584	0.17
578.926	0.16
579.267	0.16
579.609	0.16
579.951	0.17
580.293	0.16
580.634	0.17
580.976	0.17
581.318	0.16
581.659	0.16
582.001	0.17
582.342	0.16
582.683	0.16
583.025	0.16
583.366	0.17
583.707	0.17
584.049	0.16
584.39	0.16
584.731	0.16
585.072	0.16
585.413	0.17
585.754	0.17
586.095	0.17
586.435	0.17
586.776	0.17
587.117	0.17
587.458	0.16
587.798	0.17
588.139	0.17
588.48	0.17
588.82	0.16
589.161	0.17
589.501	0.16
589.841	0.17
590.182	0.16
590.522	0.16
590.862	0.17
591.202	0.16
591.542	0.16
591.882	0.17
592.222	0.16
592.562	0.17
592.902	0.16
593.242	0.16
593.582	0.17
593.922	0.17
594.261	0.16
594.601	0.16
594.941	0.17
595.28	0.16
595.62	0.16
595.959	0.16
596.299	0.16
596.638	0.16
596.977	0.16
597.317	0.16
597.656	0.17
597.995	0.16
598.334	0.17
598.673	0.17
599.012	0.16
599.351	0.16
599.69	0.16
600.029	0.16
600.368	0.16
600.707	0.17
601.046	0.16
601.384	0.16
601.723	0.16
602.061	0.15
602.4	0.16
602.738	0.16
603.077	0.16
603.415	0.15
603.754	0.16
604.092	0.16
604.43	0.16
604.768	0.17
605.107	0.16
605.445	0.16
605.783	0.16
606.121	0.15
606.459	0.16
606.796	0.16
607.134	0.16
607.472	0.16
607.81	0.16
608.148	0.15
608.485	0.16
608.823	0.15
609.16	0.16
609.498	0.16
609.835	0.15
610.173	0.16
610.51	0.16
610.847	0.16
611.185	0.16
611.522	0.17
611.859	0.16
612.196	0.16
612.533	0.17
612.87	0.16
613.207	0.17
613.544	0.17
613.881	0.17
614.217	0.17
614.554	0.17
614.891	0.17
615.228	0.17
615.564	0.17
615.901	0.17
616.237	0.18
616.574	0.17
616.91	0.18
617.246	0.17
617.583	0.17
617.919	0.18
618.255	0.18
618.591	0.17
618.927	0.17
619.263	0.17
619.599	0.17
619.935	0.17
620.271	0.18
620.607	0.17
620.943	0.16
621.279	0.17
621.614	0.17
621.95	0.17
622.286	0.16
622.621	0.16
622.957	0.16
623.292	0.16
623.627	0.15
623.963	0.16
624.298	0.16
624.633	0.15
624.968	0.15
625.304	0.16
625.639	0.15
625.974	0.15
626.309	0.15
626.644	0.15
626.979	0.16
627.313	0.16
627.648	0.16
627.983	0.15
628.318	0.15
628.652	0.15
628.987	0.15
629.321	0.15
629.656	0.15
629.99	0.14
630.325	0.16
630.659	0.15
630.993	0.15
631.327	0.15
631.662	0.14
631.996	0.15
632.33	0.15
632.664	0.14
632.998	0.14
633.332	0.15
633.666	0.15
633.999	0.15
634.333	0.14
634.667	0.15
635.001	0.14
635.334	0.14
635.668	0.14
636.001	0.14
636.335	0.15
636.668	0.14
637.001	0.14
637.335	0.14
637.668	0.14
638.001	0.13
638.334	0.14
638.668	0.14
639.001	0.14
639.334	0.14
639.667	0.14
639.999	0.14
640.332	0.14
640.665	0.14
640.998	0.14
641.331	0.14
641.663	0.14
641.996	0.14
642.328	0.14
642.661	0.13
642.993	0.14
643.326	0.14
643.658	0.13
643.99	0.13
644.323	0.13
644.655	0.14
644.987	0.14
645.319	0.14
645.651	0.14
645.983	0.14
646.315	0.14
646.647	0.15
646.979	0.14
647.31	0.15
647.642	0.15
647.974	0.14
648.305	0.15
648.637	0.15
648.968	0.15
649.3	0.14
649.631	0.15
649.963	0.14
650.294	0.15
650.625	0.14
650.957	0.15
651.288	0.15
651.619	0.15
651.95	0.15
652.281	0.15
652.612	0.14
652.943	0.15
653.274	0.15
653.604	0.14
653.935	0.14
654.266	0.14
654.596	0.14
654.927	0.14
655.258	0.14
655.588	0.14
655.918	0.14
656.249	0.13
656.579	0.14
656.909	0.13
657.24	0.14
657.57	0.14
657.9	0.14
658.23	0.14
658.56	0.15
658.89	0.15
659.22	0.14
659.55	0.14
659.88	0.14
660.209	0.15
660.539	0.15
660.869	0.14
661.198	0.15
661.528	0.14
661.857	0.14
662.187	0.14
662.516	0.14
662.846	0.14
663.175	0.13
663.504	0.13
663.833	0.14
664.163	0.14
664.492	0.13
664.821	0.14
665.15	0.13
665.479	0.14
665.807	0.13
666.136	0.13
666.465	0.13
666.794	0.13
667.122	0.13
667.451	0.12
667.78	0.13
668.108	0.13
668.437	0.12
668.765	0.13
669.093	0.13
669.422	0.13
669.75	0.13
670.078	0.14
670.406	0.13
670.734	0.13
671.062	0.13
671.39	0.13
671.718	0.13
672.046	0.13
672.374	0.12
672.702	0.13
673.029	0.12
673.357	0.13
673.685	0.13
674.012	0.12
674.34	0.12
674.667	0.13
674.995	0.13
675.322	0.13
675.649	0.12
675.977	0.13
676.304	0.12
676.631	0.12
676.958	0.12
677.285	0.12
677.612	0.12
677.939	0.12
678.266	0.12
678.593	0.12
678.92	0.12
679.246	0.11
679.573	0.11
679.9	0.11
680.226	0.11
680.553	0.11
680.879	0.12
681.206	0.12
681.532	0.11
681.858	0.12
682.184	0.11
682.511	0.12
682.837	0.11
683.163	0.11
683.489	0.11
683.815	0.12
684.141	0.11
684.467	0.11
684.793	0.11
685.118	0.11
685.444	0.12
685.77	0.11
686.095	0.11
686.421	0.11
686.746	0.11
687.072	0.12
687.397	0.11
687.723	0.12
688.048	0.12
688.373	0.12
688.698	0.11
689.023	0.12
689.349	0.11
689.674	0.11
689.999	0.11
690.323	0.1
690.648	0.1
690.973	0.09
691.298	0.1
691.623	0.1
691.947	0.1
692.272	0.1
692.596	0.1
692.921	0.1
693.245	0.1
693.57	0.1
693.894	0.11
694.218	0.1
694.543	0.1
694.867	0.1
695.191	0.09
695.515	0.1
695.839	0.1
696.163	0.1
696.487	0.1
696.811	0.09
697.135	0.1
697.458	0.1
697.782	0.1
698.106	0.1
698.429	0.1
698.753	0.1
699.076	0.1
699.4	0.09
699.723	0.09
700.046	0.09
700.37	0.1
700.693	0.09
701.016	0.1
701.339	0.1
701.662	0.1
701.985	0.1
702.308	0.1
702.631	0.11
702.954	0.11
703.277	0.1
703.599	0.1
703.922	0.1
704.245	0.09
704.567	0.09
704.89	0.09
705.212	0.09
705.535	0.09
705.857	0.09
706.179	0.09
706.502	0.09
706.824	0.09
707.146	0.09
707.468	0.1
707.79	0.09
708.112	0.09
708.434	0.09
708.756	0.1
709.078	0.09
709.399	0.09
709.721	0.09
710.043	0.09
710.364	0.09
710.686	0.09
711.007	0.09
711.329	0.1
711.65	0.1
711.972	0.09
712.293	0.09
712.614	0.09
712.935	0.09
713.256	0.09
713.577	0.1
713.898	0.09
714.219	0.09
714.54	0.09
714.861	0.08
715.182	0.08
715.503	0.08
715.823	0.08
716.144	0.08
716.464	0.08
716.785	0.07
717.105	0.08
717.426	0.09
717.746	0.08
718.066	0.08
718.387	0.08
718.707	0.07
719.027	0.08
719.347	0.07
719.667	0.07
719.987	0.07
720.307	0.07
720.627	0.07
720.947	0.07
721.266	0.07
721.586	0.06
721.906	0.07
722.225	0.06
722.545	0.06
722.864	0.07
723.184	0.07
723.503	0.06
723.823	0.07
724.142	0.06
724.461	0.07
724.78	0.07
725.099	0.07
725.418	0.07
725.737	0.07
726.056	0.07
726.375	0.08
726.694	0.07
727.013	0.07
727.331	0.06
727.65	0.07
727.969	0.07
728.287	0.07
728.606	0.07
728.924	0.06
729.242	0.06
729.561	0.07
729.879	0.07
730.197	0.07
730.515	0.06
730.834	0.06
731.152	0.07
731.47	0.06
731.788	0.06
732.105	0.06
732.423	0.06
732.741	0.06
733.059	0.06
733.376	0.07
733.694	0.05
734.012	0.06
734.329	0.07
734.647	0.06
734.964	0.07
735.281	0.06
735.599	0.07
735.916	0.07
736.233	0.06
736.55	0.06
736.867	0.06
737.184	0.07
737.501	0.06
737.818	0.07
738.135	0.07
738.452	0.07
738.768	0.07
739.085	0.07
739.402	0.06
739.718	0.07
740.035	0.07
740.351	0.07
740.668	0.07
740.984	0.07
741.3	0.06
741.617	0.07
741.933	0.06
742.249	0.07
742.565	0.07
742.881	0.07
743.197	0.07
743.513	0.06
743.829	0.06
744.144	0.07
744.46	0.06
744.776	0.07
745.091	0.06
745.407	0.06
745.722	0.06
746.038	0.07
746.353	0.05
746.669	0.07
746.984	0.06
747.299	0.07
747.614	0.07
747.93	0.07
748.245	0.07
748.56	0.06
748.875	0.08
749.189	0.06
749.504	0.07
749.819	0.08
750.134	0.07
750.448	0.06
750.763	0.06
751.078	0.06
751.392	0.06
751.707	0.07
752.021	0.07
752.335	0.07
752.65	0.07
752.964	0.07
753.278	0.07
753.592	0.07
753.906	0.06
754.22	0.07
754.534	0.07
754.848	0.06
755.162	0.06
755.476	0.07
755.789	0.07
756.103	0.06
756.417	0.07
756.73	0.07
757.044	0.07
757.357	0.06
757.671	0.07
757.984	0.06
758.297	0.07
758.61	0.07
758.924	0.07
759.237	0.07
759.55	0.06
759.863	0.07
760.176	0.07
760.488	0.07
760.801	0.06
761.114	0.06
761.427	0.05
761.739	0.06
762.052	0.06
762.365	0.06
762.677	0.06
762.99	0.05
763.302	0.06
763.614	0.06
763.926	0.06
764.239	0.06
764.551	0.06
764.863	0.06
765.175	0.06
765.487	0.06
765.799	0.05
766.111	0.05
766.423	0.06
766.734	0.06
767.046	0.05
767.358	0.06
767.669	0.06
767.981	0.05
768.292	0.05
768.604	0.06
768.915	0.05
769.226	0.05
769.537	0.04
769.849	0.06
770.16	0.05
770.471	0.05
770.782	0.05
771.093	0.05
771.404	0.04
771.715	0.04
772.025	0.04
772.336	0.05
772.647	0.04
772.957	0.05
773.268	0.05
773.578	0.05
773.889	0.05
774.199	0.05
774.51	0.04
774.82	0.04
775.13	0.05
775.44	0.05
775.75	0.05
776.06	0.05
776.37	0.05
776.68	0.06
776.99	0.05
777.3	0.04
777.61	0.05
777.92	0.05
778.229	0.04
778.539	0.05
778.848	0.05
779.158	0.05
779.467	0.05
779.777	0.05
780.086	0.05
780.395	0.04
780.704	0.05
781.013	0.04
781.323	0.05
781.632	0.05
781.941	0.06
782.249	0.05
782.558	0.04
782.867	0.05
783.176	0.04
783.485	0.04
783.793	0.05
784.102	0.04
784.41	0.04
784.719	0.04
785.027	0.04
785.335	0.04
785.644	0.05
785.952	0.04
786.26	0.04
786.568	0.03
786.876	0.04
787.184	0.04
787.492	0.04
787.8	0.05
788.108	0.05
788.416	0.05
788.723	0.05
789.031	0.03
789.338	0.05
789.646	0.04
789.953	0.04
790.261	0.04
790.568	0.04
790.876	0.04
791.183	0.05
791.49	0.03
791.797	0.04
792.104	0.03
792.411	0.04
792.718	0.04
793.025	0.05
793.332	0.04
793.639	0.06
793.945	0.05
794.252	0.05
794.559	0.05
794.865	0.05
795.172	0.05
795.478	0.05
795.784	0.05
796.091	0.05
796.397	0.05
796.703	0.05
797.009	0.06
797.315	0.05
797.622	0.05
797.927	0.05
798.233	0.04
798.539	0.05
798.845	0.05
799.151	0.05
799.456	0.04
799.762	0.05
800.068	0.05
800.373	0.05
800.679	0.05
800.984	0.05
801.289	0.04
801.595	0.04
801.9	0.04
802.205	0.04
802.51	0.04
802.815	0.04
803.12	0.04
803.425	0.04
803.73	0.04
804.035	0.04
804.339	0.04
804.644	0.04
804.949	0.04
805.253	0.04
805.558	0.04
805.862	0.04
806.167	0.05
806.471	0.05
806.775	0.05
807.08	0.04
807.384	0.04
807.688	0.04
807.992	0.05
808.296	0.04
808.6	0.05
808.904	0.05
809.207	0.05
809.511	0.06
809.815	0.06
810.119	0.05
810.422	0.05
810.726	0.05
811.029	0.06
811.332	0.05
811.636	0.06
811.939	0.05
812.242	0.05
812.546	0.05
812.849	0.05
813.152	0.05
813.455	0.05
813.758	0.06
814.06	0.05
814.363	0.05
814.666	0.06
814.969	0.06
815.271	0.05
815.574	0.05
815.877	0.05
816.179	0.05
816.481	0.04
816.784	0.04
817.086	0.04
817.388	0.03
817.69	0.03
817.993	0.03
818.295	0.04
818.597	0.03
818.899	0.03
819.2	0.02
819.502	0.02
819.804	0.03
820.106	0.02
820.407	0.02
820.709	0.02
821.01	0.03
821.312	0.03
821.613	0.03
821.915	0.02
822.216	0.03
822.517	0.02
822.818	0.03
823.119	0.03
823.42	0.03
823.721	0.03
824.022	0.03
824.323	0.03
824.624	0.03
824.925	0.04
825.226	0.04
825.526	0.03
825.827	0.04
826.127	0.04
826.428	0.04
826.728	0.04
827.028	0.04
827.329	0.04
827.629	0.03
827.929	0.03
828.229	0.03
828.529	0.04
828.829	0.03
829.129	0.03
829.429	0.04
829.729	0.03
830.029	0.03
830.328	0.03
830.628	0.02
830.927	0.02
831.227	0.02
831.526	0.03
831.826	0.03
832.125	0.02
832.424	0.02
832.724	0.03
833.023	0.03
833.322	0.03
833.621	0.02
833.92	0.02
834.219	0.03
834.518	0.03
834.816	0.01
835.115	0.02
835.414	0.02
835.712	0.02
836.011	0.02
836.309	0.02
836.608	0.01
836.906	0.01
837.205	0.01
837.503	0.01
837.801	0.01
838.099	0
838.397	-0
838.695	-0
838.993	0
839.291	-0.01
839.589	-0
839.887	-0.01
840.184	-0.02
840.482	-0.02
840.78	-0.01
841.077	-0.02
841.375	-0.02
841.672	-0.02
841.969	-0.02
842.267	-0.02
842.564	-0.03
842.861	-0.02
843.158	-0.03
843.455	-0.05
843.752	-0.03
844.049	-0.03
844.346	-0.03
844.643	-0.04
844.94	-0.04
845.236	-0.02
845.533	-0.04
845.83	-0.04
846.126	-0.05
846.423	-0.04
846.719	-0.05
847.015	-0.05
847.312	-0.05
847.608	-0.05
847.904	-0.06
848.2	-0.05
848.496	-0.06
848.792	-0.04
849.088	-0.05
849.384	-0.05
849.68	-0.06
849.975	-0.06
850.271	-0.06
850.567	-0.06
850.862	-0.06
851.158	-0.06
851.453	-0.06
851.748	-0.07
852.044	-0.07
852.339	-0.07
852.634	-0.07
852.929	-0.06
853.224	-0.08
853.519	-0.07
853.814	-0.07
854.109	-0.08
854.404	-0.07
854.699	-0.08
854.994	-0.07
855.288	-0.07
855.583	-0.07
855.877	-0.08
856.172	-0.08
856.466	-0.09
856.76	-0.08
857.055	-0.08
857.349	-0.09
857.643	-0.1
857.937	-0.1
858.231	-0.1
858.525	-0.1
858.819	-0.1
859.113	-0.11
859.407	-0.11
859.701	-0.11
859.994	-0.12
860.288	-0.1
860.581	-0.11
860.875	-0.11
861.168	-0.12
861.462	-0.12
861.755	-0.1
862.048	-0.12
862.341	-0.11
862.634	-0.12
862.928	-0.12
863.221	-0.12
863.513	-0.12
863.806	-0.12
864.099	-0.13
864.392	-0.12
864.685	-0.11
864.977	-0.12
865.27	-0.12
865.562	-0.12
865.855	-0.13
866.147	-0.13
866.44	-0.12
866.732	-0.13
867.024	-0.13
867.316	-0.13
867.608	-0.14
867.9	-0.14
868.192	-0.14
868.484	-0.14
868.776	-0.15
869.068	-0.14
869.359	-0.15
869.651	-0.14
869.943	-0.16
870.234	-0.15
870.526	-0.16
870.817	-0.16
871.108	-0.15
871.4	-0.16
871.691	-0.15
871.982	-0.15
872.273	-0.18
872.564	-0.15
872.855	-0.17
873.146	-0.17
873.437	-0.17
873.728	-0.18
874.019	-0.16
874.309	-0.17
874.6	-0.17
874.89	-0.17
875.181	-0.18
875.471	-0.17
875.762	-0.18
876.052	-0.17
876.342	-0.15
876.632	-0.17
876.922	-0.18
877.213	-0.18
877.503	-0.18
877.792	-0.18
878.082	-0.18
878.372	-0.17
878.662	-0.19
878.952	-0.19
879.241	-0.18
879.531	-0.17
879.82	-0.18
880.11	-0.18
880.399	-0.18
880.688	-0.17
880.978	-0.17
881.267	-0.17
